*RAS_DATA_START
*RAS_HEADER_START
*CORR_POS_DB_NAME "DTEX_11112016"
*CORR_POS_GONIO_RADIUS ""
*CORR_POS_NODE_INDEX01 ""
*CORR_POS_NODE_INDEX02 ""
*CORR_POS_NODE_INDEX03 ""
*CORR_POS_NODE_INDEX04 ""
*CORR_POS_NODE_INDEX05 ""
*CORR_POS_NODE_INDEX06 ""
*CORR_POS_NODE_INDEX07 ""
*CORR_POS_NODE_INDEX08 ""
*CORR_POS_NODE_INDEX09 ""
*CORR_POS_NODE_INDEX10 ""
*CORR_POS_NODE_INDEX11 ""
*CORR_POS_NODE_LABEL01 "Si(111)"
*CORR_POS_NODE_LABEL02 "Si(220)"
*CORR_POS_NODE_LABEL03 "Si(311)"
*CORR_POS_NODE_LABEL04 "Si(400)"
*CORR_POS_NODE_LABEL05 "Si(331)"
*CORR_POS_NODE_LABEL06 "Si(422)"
*CORR_POS_NODE_LABEL07 "Si(511)"
*CORR_POS_NODE_LABEL08 "Si(440)"
*CORR_POS_NODE_LABEL09 "Si(531)"
*CORR_POS_NODE_LABEL10 "Si(620)"
*CORR_POS_NODE_LABEL11 "Si(533)"
*CORR_POS_NODE_POS_CALC01 "28.4137"
*CORR_POS_NODE_POS_CALC02 "47.2707"
*CORR_POS_NODE_POS_CALC03 "56.0883"
*CORR_POS_NODE_POS_CALC04 "69.0934"
*CORR_POS_NODE_POS_CALC05 "76.3385"
*CORR_POS_NODE_POS_CALC06 "87.9915"
*CORR_POS_NODE_POS_CALC07 "94.9137"
*CORR_POS_NODE_POS_CALC08 "106.67"
*CORR_POS_NODE_POS_CALC09 "114.054"
*CORR_POS_NODE_POS_CALC10 "127.508"
*CORR_POS_NODE_POS_CALC11 "136.858"
*CORR_POS_NODE_POS_MEAS01 "28.3712"
*CORR_POS_NODE_POS_MEAS02 "47.2304"
*CORR_POS_NODE_POS_MEAS03 "56.0465"
*CORR_POS_NODE_POS_MEAS04 "69.0523"
*CORR_POS_NODE_POS_MEAS05 "76.2993"
*CORR_POS_NODE_POS_MEAS06 "87.9512"
*CORR_POS_NODE_POS_MEAS07 "94.8772"
*CORR_POS_NODE_POS_MEAS08 "106.636"
*CORR_POS_NODE_POS_MEAS09 "114.028"
*CORR_POS_NODE_POS_MEAS10 "127.48"
*CORR_POS_NODE_POS_MEAS11 "136.839"
*CORR_POS_OPT_ATTR "集中法"
*CORR_POS_PARAM_MU ""
*CORR_POS_PARAM_PL ""
*CORR_POS_SEMODEL_TYPE "0"
*CORR_POS_STANDARD_TYPE ""
*CORR_POS_VALUE_ANALYZER "None"
*CORR_POS_VALUE_CMONO "None"
*CORR_POS_VALUE_IMONO "None"
*CORR_POS_VALUE_IS "0.625deg"
*CORR_POS_VALUE_ISL "10.0mm"
*CORR_POS_VALUE_ISOLLER "2.5deg"
*CORR_POS_VALUE_RS1 "13.0mm"
*CORR_POS_VALUE_RS2 "13.0mm"
*CORR_POS_VALUE_RSOLLER "2.5deg"
*CORR_POS_XG_FOCUS_L ""
*CORR_POS_XG_WAVE_TYPE ""
*CORR_POS_XG_WAVE_VALUE ""
*DISP_FMT_X "%.2f"
*DISP_FMT_Y "%.0f"
*DISP_FULLSCALE "1974.0000000000"
*DISP_LINE_COLOR "255.0000000000"
*DISP_LINE_STYLE "0.0000000000"
*DISP_LINE_WIDTH "0.2500000000"
*DISP_NOTE "Collected Data-2"
*DISP_OFFSET_Y "0.0000000000"
*DISP_PEAKSEARCH_UNIT_Y "COUNTS"
*DISP_RANGE_BOTTOM "0.0000000000"
*DISP_RANGE_LEFT "10.0000000000"
*DISP_RANGE_LOGCUTOFF "0.0100000000"
*DISP_RANGE_RIGHT "90.0000000000"
*DISP_RANGE_TOP "1974.0000000000"
*DISP_SCALE_MODE_Y "0.0000000000"
*DISP_TAB_NAME "Theta/2-Theta"
*DISP_TITLE_Y "Intensity"
*DISP_UNIT_Y "COUNTS"
*DISP_WINDOW_NAME "MSG_MACROENGINE"
*FILE_COMMENT " "
*FILE_MD5 ""
*FILE_MEMO " "
*FILE_OPERATOR "MiniFlex"
*FILE_PART_ID "MEAS_PBEA_00223"
*FILE_SAMPLE "Grafittpapir_test_glassholder"
*FILE_TYPE "RAS_RAW"
*FILE_USERGROUP "System User"
*FILE_VERSION "1.0000000000"
*HW_ATTACHMENT_ID "ATT1031"
*HW_ATTACHMENT_NAME "6サンプルチェンジャ|ASC-6"
*HW_COUNTER_ID-0 "CUT0025"
*HW_COUNTER_ID-1 "CUT0020"
*HW_COUNTER_ID-2 "CUT0020"
*HW_COUNTER_ID-3 "CMC0021"
*HW_COUNTER_NAME-0 "D/teX Ultra|D/teX Ultra"
*HW_COUNTER_NAME-1 "None|None"
*HW_COUNTER_NAME-2 "None|None"
*HW_COUNTER_NAME-3 "検出器モノクロメータ|Detector monochromator"
*HW_COUNTER_SELECT_NAME "D/teX Ultra|D/teX Ultra"
*HW_GONIOMETER_ID "GON0070"
*HW_GONIOMETER_NAME "MiniFlex 300/600|MiniFlex 300/600"
*HW_GONIOMETER_RADIUS-0 "79.0"
*HW_GONIOMETER_RADIUS-1 "91.5"
*HW_GONIOMETER_RADIUS-2 "150.0"
*HW_GONIOMETER_RADIUS-3 "0"
*HW_GONIOMETER_RADIUS-4 "103.4"
*HW_GONIOMETER_RADIUS-5 "150.0"
*HW_GONIOMETER_RADIUS-6 "46.6"
*HW_GONIOMETER_RADIUS-7 "160.0"
*HW_I_OPT_ID-0 "ISL0021"
*HW_I_OPT_ID-1 "ISO0021"
*HW_I_OPT_NAME-0 "発散スリット|Divergence slit"
*HW_I_OPT_NAME-1 "入射平行スリット|Incident parallel slit"
*HW_R_ATTENUATER_AUTOMODE "0"
*HW_R_OPT_ID-0 "RSS0021"
*HW_R_OPT_ID-1 "RSO0021"
*HW_R_OPT_ID-2 "RRS0021"
*HW_R_OPT_NAME-0 "散乱スリット|Scattering slit"
*HW_R_OPT_NAME-1 "受光平行スリット|Receiving soller slit"
*HW_R_OPT_NAME-2 "受光スリット|Receiving slit"
*HW_SAMPLE_HOLDER_ID "SMP0000"
*HW_SAMPLE_HOLDER_NAME "無し|None"
*HW_XG_CURRENT_MAX "15"
*HW_XG_CURRENT_MIN "2"
*HW_XG_CURRENT_RESOLUTION "1"
*HW_XG_CURRENT_UNIT "mA"
*HW_XG_FOCUS "1mm x 10mm"
*HW_XG_FOCUS_TYPE "Normal"
*HW_XG_ID "1060"
*HW_XG_NAME "300W/600W 封入管-B|300W/600W Sealed tube-B"
*HW_XG_TARGET_ATOMIC_NUMBER "29.0000000000"
*HW_XG_TARGET_NAME "Cu"
*HW_XG_TYPE "Hermetic"
*HW_XG_VOLTAGE_MAX "40"
*HW_XG_VOLTAGE_MIN "20"
*HW_XG_VOLTAGE_RESOLUTION "1"
*HW_XG_VOLTAGE_UNIT "kV"
*HW_XG_WATT_MAX "1"
*HW_XG_WATT_UNIT "kW"
*HW_XG_WAVE_LENGTH_ALPHA1 "1.540593"
*HW_XG_WAVE_LENGTH_ALPHA2 "1.544414"
*HW_XG_WAVE_LENGTH_BETA "1.392250"
*MEAS_COND_AXIS_NAME-0 "Theta/2-Theta"
*MEAS_COND_AXIS_NAME-1 "Spin"
*MEAS_COND_AXIS_NAME-2 "Change"
*MEAS_COND_AXIS_NAME-3 "Soller(inc.)"
*MEAS_COND_AXIS_NAME-4 "IHS"
*MEAS_COND_AXIS_NAME-5 "DS"
*MEAS_COND_AXIS_NAME-6 "SS"
*MEAS_COND_AXIS_NAME-7 "Soller(rec.)"
*MEAS_COND_AXIS_NAME-8 "RS"
*MEAS_COND_AXIS_NAME-9 "Filter"
*MEAS_COND_AXIS_NAME-10 "Monochromator"
*MEAS_COND_AXIS_NAME-11 "PHA"
*MEAS_COND_AXIS_NAME_INTERNAL-0 "TwoThetaTheta"
*MEAS_COND_AXIS_NAME_INTERNAL-1 "Spin"
*MEAS_COND_AXIS_NAME_INTERNAL-2 "Change"
*MEAS_COND_AXIS_NAME_INTERNAL-3 "IncidentSollerSlit"
*MEAS_COND_AXIS_NAME_INTERNAL-4 "IncidentAxdSlit"
*MEAS_COND_AXIS_NAME_INTERNAL-5 "IncidentSlitBox"
*MEAS_COND_AXIS_NAME_INTERNAL-6 "ReceivingSlitBox1"
*MEAS_COND_AXIS_NAME_INTERNAL-7 "ReceivingSollerSlit"
*MEAS_COND_AXIS_NAME_INTERNAL-8 "ReceivingSlitBox2"
*MEAS_COND_AXIS_NAME_INTERNAL-9 "Filter"
*MEAS_COND_AXIS_NAME_INTERNAL-10 "CounterMonochromator"
*MEAS_COND_AXIS_NAME_INTERNAL-11 "PHA"
*MEAS_COND_AXIS_NAME_MAGICNO-0 "268632064.0000000000"
*MEAS_COND_AXIS_NAME_MAGICNO-1 "16842752.0000000000"
*MEAS_COND_AXIS_NAME_MAGICNO-2 "16842752.0000000000"
*MEAS_COND_AXIS_NAME_MAGICNO-3 "20971521.0000000000"
*MEAS_COND_AXIS_NAME_MAGICNO-4 "22020097.0000000000"
*MEAS_COND_AXIS_NAME_MAGICNO-5 "22020097.0000000000"
*MEAS_COND_AXIS_NAME_MAGICNO-6 "23068673.0000000000"
*MEAS_COND_AXIS_NAME_MAGICNO-7 "20971521.0000000000"
*MEAS_COND_AXIS_NAME_MAGICNO-8 "23068673.0000000000"
*MEAS_COND_AXIS_NAME_MAGICNO-9 "20971521.0000000000"
*MEAS_COND_AXIS_NAME_MAGICNO-10 "20971521.0000000000"
*MEAS_COND_AXIS_NAME_MAGICNO-11 "0.0000000000"
*MEAS_COND_AXIS_OFFSET-0 "0.0000000000"
*MEAS_COND_AXIS_OFFSET-1 "-"
*MEAS_COND_AXIS_OFFSET-2 "-"
*MEAS_COND_AXIS_OFFSET-3 "-"
*MEAS_COND_AXIS_OFFSET-4 "-"
*MEAS_COND_AXIS_OFFSET-5 "-"
*MEAS_COND_AXIS_OFFSET-6 "-"
*MEAS_COND_AXIS_OFFSET-7 "-"
*MEAS_COND_AXIS_OFFSET-8 "-"
*MEAS_COND_AXIS_OFFSET-9 "-"
*MEAS_COND_AXIS_OFFSET-10 "-"
*MEAS_COND_AXIS_OFFSET-11 "-"
*MEAS_COND_AXIS_POSITION-0 "10.0000000000"
*MEAS_COND_AXIS_POSITION-1 "0.0000000000"
*MEAS_COND_AXIS_POSITION-2 "1.0000000000"
*MEAS_COND_AXIS_POSITION-3 "2.5deg"
*MEAS_COND_AXIS_POSITION-4 "10.0mm"
*MEAS_COND_AXIS_POSITION-5 "0.625deg"
*MEAS_COND_AXIS_POSITION-6 "13.0mm(Open)"
*MEAS_COND_AXIS_POSITION-7 "2.5deg"
*MEAS_COND_AXIS_POSITION-8 "13.0mm"
*MEAS_COND_AXIS_POSITION-9 "K-beta(x2)"
*MEAS_COND_AXIS_POSITION-10 "None"
*MEAS_COND_AXIS_POSITION-11 "41.0000000000"
*MEAS_COND_AXIS_UNIT-0 "deg"
*MEAS_COND_AXIS_UNIT-1 ""
*MEAS_COND_AXIS_UNIT-2 ""
*MEAS_COND_AXIS_UNIT-3 ""
*MEAS_COND_AXIS_UNIT-4 ""
*MEAS_COND_AXIS_UNIT-5 ""
*MEAS_COND_AXIS_UNIT-6 ""
*MEAS_COND_AXIS_UNIT-7 ""
*MEAS_COND_AXIS_UNIT-8 ""
*MEAS_COND_AXIS_UNIT-9 ""
*MEAS_COND_AXIS_UNIT-10 ""
*MEAS_COND_AXIS_UNIT-11 "div"
*MEAS_COND_CORRECTION_SLIT_COUNTERMONO "None"
*MEAS_COND_CORRECTION_SLIT_DS "0.625deg"
*MEAS_COND_CORRECTION_SLIT_FILTER "None"
*MEAS_COND_CORRECTION_SLIT_IHS "10.0mm"
*MEAS_COND_CORRECTION_SLIT_RS "13.0mm"
*MEAS_COND_CORRECTION_SLIT_SOLLER_INC "2.5deg"
*MEAS_COND_CORRECTION_SLIT_SOLLER_REC "2.5deg"
*MEAS_COND_CORRECTION_SLIT_SS "13.0mm"
*MEAS_COND_COUNTER_CNTLOSS_CORR "0.0000000000"
*MEAS_COND_COUNTER_PHABASE "41.0000000000"
*MEAS_COND_COUNTER_PHAWINDOW "14.0000000000"
*MEAS_COND_COUNTER_PHA_UNIT "div"
*MEAS_COND_COUNTER_TAUDIFF "0.2500000000"
*MEAS_COND_COUNTER_TAUINT "0.7500000000"
*MEAS_COND_IRRADIATION_MODE "OFF"
*MEAS_COND_IRRADIATION_WIDTH ""
*MEAS_COND_OPT_ATTR " "
*MEAS_COND_OPT_NAME ""
*MEAS_COND_UNSYMMETRIC_MODE "OFF"
*MEAS_COND_XG_CURRENT "15.0000000000"
*MEAS_COND_XG_VOLTAGE "40.0000000000"
*MEAS_COND_XG_WAVE_TYPE "Ka"
*MEAS_DATA_COUNT "4001.0000000000"
*MEAS_SCAN_AXIS_X "Theta/2-Theta"
*MEAS_SCAN_AXIS_X_INTERNAL "TwoThetaTheta"
*MEAS_SCAN_END_TIME "02/23/17 12:57:38"
*MEAS_SCAN_MODE "CONTINUOUS"
*MEAS_SCAN_MONITOR "0"
*MEAS_SCAN_RESOLUTION_X "0.005"
*MEAS_SCAN_SPEED "100.000"
*MEAS_SCAN_SPEED_UNIT "deg/min"
*MEAS_SCAN_SPEED_USER "100.000"
*MEAS_SCAN_START "10.0000000000"
*MEAS_SCAN_START_TIME "02/23/17 12:56:31"
*MEAS_SCAN_STEP "0.0200000000"
*MEAS_SCAN_STOP "90.0000000000"
*MEAS_SCAN_UNIT_X "deg"
*MEAS_SCAN_UNIT_Y "counts"
*SLIT_SYSTEM "0"
*RAS_HEADER_END
*RAS_INT_START
10.000 24.000 1.000
10.020 24.000 1.000
10.040 24.000 1.000
10.060 24.000 1.000
10.080 26.000 1.000
10.100 19.000 1.000
10.120 25.000 1.000
10.140 23.000 1.000
10.160 17.000 1.000
10.180 22.000 1.000
10.200 16.000 1.000
10.220 21.000 1.000
10.240 23.000 1.000
10.260 17.000 1.000
10.280 17.000 1.000
10.300 23.000 1.000
10.320 17.000 1.000
10.340 17.000 1.000
10.360 12.000 1.000
10.380 21.000 1.000
10.400 24.000 1.000
10.420 20.000 1.000
10.440 22.000 1.000
10.460 14.000 1.000
10.480 11.000 1.000
10.500 18.000 1.000
10.520 15.000 1.000
10.540 20.000 1.000
10.560 23.000 1.000
10.580 22.000 1.000
10.600 28.000 1.000
10.620 22.000 1.000
10.640 19.000 1.000
10.660 21.000 1.000
10.680 17.000 1.000
10.700 19.000 1.000
10.720 18.000 1.000
10.740 23.000 1.000
10.760 23.000 1.000
10.780 24.000 1.000
10.800 27.000 1.000
10.820 23.000 1.000
10.840 23.000 1.000
10.860 20.000 1.000
10.880 14.000 1.000
10.900 16.000 1.000
10.920 16.000 1.000
10.940 12.000 1.000
10.960 19.000 1.000
10.980 22.000 1.000
11.000 16.000 1.000
11.020 22.000 1.000
11.040 21.000 1.000
11.060 17.000 1.000
11.080 15.000 1.000
11.100 16.000 1.000
11.120 17.000 1.000
11.140 21.000 1.000
11.160 17.000 1.000
11.180 18.000 1.000
11.200 17.000 1.000
11.220 20.000 1.000
11.240 14.000 1.000
11.260 16.000 1.000
11.280 13.000 1.000
11.300 18.000 1.000
11.320 20.000 1.000
11.340 18.000 1.000
11.360 20.000 1.000
11.380 14.000 1.000
11.400 12.000 1.000
11.420 17.000 1.000
11.440 17.000 1.000
11.460 15.000 1.000
11.480 10.000 1.000
11.500 16.000 1.000
11.520 20.000 1.000
11.540 21.000 1.000
11.560 18.000 1.000
11.580 16.000 1.000
11.600 21.000 1.000
11.620 18.000 1.000
11.640 16.000 1.000
11.660 17.000 1.000
11.680 13.000 1.000
11.700 11.000 1.000
11.720 16.000 1.000
11.740 18.000 1.000
11.760 15.000 1.000
11.780 12.000 1.000
11.800 16.000 1.000
11.820 16.000 1.000
11.840 16.000 1.000
11.860 13.000 1.000
11.880 20.000 1.000
11.900 17.000 1.000
11.920 16.000 1.000
11.940 17.000 1.000
11.960 15.000 1.000
11.980 13.000 1.000
12.000 14.000 1.000
12.020 12.000 1.000
12.040 12.000 1.000
12.060 14.000 1.000
12.080 20.000 1.000
12.100 16.000 1.000
12.120 10.000 1.000
12.140 14.000 1.000
12.160 14.000 1.000
12.180 12.000 1.000
12.200 17.000 1.000
12.220 16.000 1.000
12.240 11.000 1.000
12.260 13.000 1.000
12.280 16.000 1.000
12.300 16.000 1.000
12.320 18.000 1.000
12.340 18.000 1.000
12.360 18.000 1.000
12.380 16.000 1.000
12.400 15.000 1.000
12.420 15.000 1.000
12.440 18.000 1.000
12.460 15.000 1.000
12.480 13.000 1.000
12.500 15.000 1.000
12.520 14.000 1.000
12.540 11.000 1.000
12.560 15.000 1.000
12.580 15.000 1.000
12.600 16.000 1.000
12.620 16.000 1.000
12.640 10.000 1.000
12.660 11.000 1.000
12.680 11.000 1.000
12.700 15.000 1.000
12.720 17.000 1.000
12.740 18.000 1.000
12.760 13.000 1.000
12.780 13.000 1.000
12.800 11.000 1.000
12.820 9.000 1.000
12.840 19.000 1.000
12.860 15.000 1.000
12.880 15.000 1.000
12.900 18.000 1.000
12.920 14.000 1.000
12.940 16.000 1.000
12.960 18.000 1.000
12.980 16.000 1.000
13.000 14.000 1.000
13.020 15.000 1.000
13.040 13.000 1.000
13.060 15.000 1.000
13.080 14.000 1.000
13.100 13.000 1.000
13.120 11.000 1.000
13.140 15.000 1.000
13.160 19.000 1.000
13.180 19.000 1.000
13.200 13.000 1.000
13.220 13.000 1.000
13.240 17.000 1.000
13.260 14.000 1.000
13.280 11.000 1.000
13.300 12.000 1.000
13.320 12.000 1.000
13.340 12.000 1.000
13.360 10.000 1.000
13.380 12.000 1.000
13.400 12.000 1.000
13.420 11.000 1.000
13.440 19.000 1.000
13.460 19.000 1.000
13.480 13.000 1.000
13.500 13.000 1.000
13.520 16.000 1.000
13.540 14.000 1.000
13.560 9.000 1.000
13.580 11.000 1.000
13.600 14.000 1.000
13.620 21.000 1.000
13.640 16.000 1.000
13.660 14.000 1.000
13.680 10.000 1.000
13.700 8.000 1.000
13.720 9.000 1.000
13.740 11.000 1.000
13.760 13.000 1.000
13.780 12.000 1.000
13.800 14.000 1.000
13.820 12.000 1.000
13.840 14.000 1.000
13.860 13.000 1.000
13.880 13.000 1.000
13.900 14.000 1.000
13.920 10.000 1.000
13.940 11.000 1.000
13.960 13.000 1.000
13.980 11.000 1.000
14.000 13.000 1.000
14.020 19.000 1.000
14.040 16.000 1.000
14.060 12.000 1.000
14.080 11.000 1.000
14.100 18.000 1.000
14.120 15.000 1.000
14.140 11.000 1.000
14.160 10.000 1.000
14.180 11.000 1.000
14.200 12.000 1.000
14.220 11.000 1.000
14.240 11.000 1.000
14.260 12.000 1.000
14.280 13.000 1.000
14.300 12.000 1.000
14.320 8.000 1.000
14.340 10.000 1.000
14.360 14.000 1.000
14.380 12.000 1.000
14.400 11.000 1.000
14.420 13.000 1.000
14.440 8.000 1.000
14.460 10.000 1.000
14.480 15.000 1.000
14.500 10.000 1.000
14.520 12.000 1.000
14.540 11.000 1.000
14.560 8.000 1.000
14.580 8.000 1.000
14.600 13.000 1.000
14.620 14.000 1.000
14.640 11.000 1.000
14.660 15.000 1.000
14.680 13.000 1.000
14.700 14.000 1.000
14.720 12.000 1.000
14.740 19.000 1.000
14.760 17.000 1.000
14.780 10.000 1.000
14.800 11.000 1.000
14.820 10.000 1.000
14.840 11.000 1.000
14.860 10.000 1.000
14.880 8.000 1.000
14.900 11.000 1.000
14.920 9.000 1.000
14.940 12.000 1.000
14.960 15.000 1.000
14.980 11.000 1.000
15.000 13.000 1.000
15.020 10.000 1.000
15.040 14.000 1.000
15.060 14.000 1.000
15.080 16.000 1.000
15.100 15.000 1.000
15.120 11.000 1.000
15.140 15.000 1.000
15.160 9.000 1.000
15.180 10.000 1.000
15.200 9.000 1.000
15.220 8.000 1.000
15.240 13.000 1.000
15.260 14.000 1.000
15.280 15.000 1.000
15.300 9.000 1.000
15.320 8.000 1.000
15.340 11.000 1.000
15.360 9.000 1.000
15.380 10.000 1.000
15.400 8.000 1.000
15.420 8.000 1.000
15.440 9.000 1.000
15.460 11.000 1.000
15.480 9.000 1.000
15.500 6.000 1.000
15.520 12.000 1.000
15.540 12.000 1.000
15.560 16.000 1.000
15.580 17.000 1.000
15.600 15.000 1.000
15.620 15.000 1.000
15.640 13.000 1.000
15.660 10.000 1.000
15.680 10.000 1.000
15.700 13.000 1.000
15.720 13.000 1.000
15.740 14.000 1.000
15.760 12.000 1.000
15.780 14.000 1.000
15.800 11.000 1.000
15.820 10.000 1.000
15.840 8.000 1.000
15.860 10.000 1.000
15.880 13.000 1.000
15.900 8.000 1.000
15.920 9.000 1.000
15.940 10.000 1.000
15.960 12.000 1.000
15.980 7.000 1.000
16.000 12.000 1.000
16.020 11.000 1.000
16.040 8.000 1.000
16.060 11.000 1.000
16.080 14.000 1.000
16.100 11.000 1.000
16.120 12.000 1.000
16.140 14.000 1.000
16.160 16.000 1.000
16.180 12.000 1.000
16.200 13.000 1.000
16.220 14.000 1.000
16.240 11.000 1.000
16.260 15.000 1.000
16.280 12.000 1.000
16.300 11.000 1.000
16.320 9.000 1.000
16.340 10.000 1.000
16.360 11.000 1.000
16.380 10.000 1.000
16.400 8.000 1.000
16.420 7.000 1.000
16.440 7.000 1.000
16.460 9.000 1.000
16.480 9.000 1.000
16.500 11.000 1.000
16.520 10.000 1.000
16.540 7.000 1.000
16.560 14.000 1.000
16.580 8.000 1.000
16.600 11.000 1.000
16.620 13.000 1.000
16.640 10.000 1.000
16.660 12.000 1.000
16.680 17.000 1.000
16.700 11.000 1.000
16.720 14.000 1.000
16.740 9.000 1.000
16.760 12.000 1.000
16.780 7.000 1.000
16.800 8.000 1.000
16.820 10.000 1.000
16.840 9.000 1.000
16.860 12.000 1.000
16.880 18.000 1.000
16.900 13.000 1.000
16.920 11.000 1.000
16.940 13.000 1.000
16.960 11.000 1.000
16.980 13.000 1.000
17.000 8.000 1.000
17.020 7.000 1.000
17.040 7.000 1.000
17.060 12.000 1.000
17.080 8.000 1.000
17.100 8.000 1.000
17.120 13.000 1.000
17.140 10.000 1.000
17.160 10.000 1.000
17.180 10.000 1.000
17.200 11.000 1.000
17.220 10.000 1.000
17.240 12.000 1.000
17.260 12.000 1.000
17.280 10.000 1.000
17.300 11.000 1.000
17.320 17.000 1.000
17.340 17.000 1.000
17.360 15.000 1.000
17.380 7.000 1.000
17.400 5.000 1.000
17.420 8.000 1.000
17.440 11.000 1.000
17.460 14.000 1.000
17.480 13.000 1.000
17.500 15.000 1.000
17.520 11.000 1.000
17.540 11.000 1.000
17.560 13.000 1.000
17.580 12.000 1.000
17.600 10.000 1.000
17.620 15.000 1.000
17.640 12.000 1.000
17.660 13.000 1.000
17.680 12.000 1.000
17.700 15.000 1.000
17.720 12.000 1.000
17.740 15.000 1.000
17.760 13.000 1.000
17.780 10.000 1.000
17.800 13.000 1.000
17.820 9.000 1.000
17.840 9.000 1.000
17.860 8.000 1.000
17.880 12.000 1.000
17.900 13.000 1.000
17.920 18.000 1.000
17.940 12.000 1.000
17.960 15.000 1.000
17.980 14.000 1.000
18.000 11.000 1.000
18.020 9.000 1.000
18.040 13.000 1.000
18.060 13.000 1.000
18.080 8.000 1.000
18.100 12.000 1.000
18.120 12.000 1.000
18.140 13.000 1.000
18.160 9.000 1.000
18.180 9.000 1.000
18.200 11.000 1.000
18.220 10.000 1.000
18.240 9.000 1.000
18.260 13.000 1.000
18.280 13.000 1.000
18.300 15.000 1.000
18.320 14.000 1.000
18.340 14.000 1.000
18.360 11.000 1.000
18.380 9.000 1.000
18.400 14.000 1.000
18.420 13.000 1.000
18.440 17.000 1.000
18.460 16.000 1.000
18.480 17.000 1.000
18.500 10.000 1.000
18.520 13.000 1.000
18.540 19.000 1.000
18.560 18.000 1.000
18.580 18.000 1.000
18.600 13.000 1.000
18.620 14.000 1.000
18.640 15.000 1.000
18.660 17.000 1.000
18.680 19.000 1.000
18.700 14.000 1.000
18.720 16.000 1.000
18.740 15.000 1.000
18.760 15.000 1.000
18.780 17.000 1.000
18.800 13.000 1.000
18.820 12.000 1.000
18.840 15.000 1.000
18.860 13.000 1.000
18.880 13.000 1.000
18.900 10.000 1.000
18.920 13.000 1.000
18.940 12.000 1.000
18.960 11.000 1.000
18.980 12.000 1.000
19.000 16.000 1.000
19.020 13.000 1.000
19.040 12.000 1.000
19.060 13.000 1.000
19.080 12.000 1.000
19.100 13.000 1.000
19.120 11.000 1.000
19.140 13.000 1.000
19.160 16.000 1.000
19.180 15.000 1.000
19.200 14.000 1.000
19.220 12.000 1.000
19.240 17.000 1.000
19.260 16.000 1.000
19.280 15.000 1.000
19.300 20.000 1.000
19.320 19.000 1.000
19.340 20.000 1.000
19.360 14.000 1.000
19.380 14.000 1.000
19.400 23.000 1.000
19.420 16.000 1.000
19.440 20.000 1.000
19.460 24.000 1.000
19.480 20.000 1.000
19.500 18.000 1.000
19.520 23.000 1.000
19.540 26.000 1.000
19.560 22.000 1.000
19.580 16.000 1.000
19.600 19.000 1.000
19.620 24.000 1.000
19.640 20.000 1.000
19.660 30.000 1.000
19.680 20.000 1.000
19.700 28.000 1.000
19.720 21.000 1.000
19.740 20.000 1.000
19.760 15.000 1.000
19.780 20.000 1.000
19.800 15.000 1.000
19.820 23.000 1.000
19.840 22.000 1.000
19.860 20.000 1.000
19.880 18.000 1.000
19.900 14.000 1.000
19.920 20.000 1.000
19.940 21.000 1.000
19.960 15.000 1.000
19.980 22.000 1.000
20.000 18.000 1.000
20.020 18.000 1.000
20.040 18.000 1.000
20.060 15.000 1.000
20.080 12.000 1.000
20.100 18.000 1.000
20.120 20.000 1.000
20.140 17.000 1.000
20.160 22.000 1.000
20.180 20.000 1.000
20.200 19.000 1.000
20.220 14.000 1.000
20.240 18.000 1.000
20.260 17.000 1.000
20.280 17.000 1.000
20.300 21.000 1.000
20.320 20.000 1.000
20.340 22.000 1.000
20.360 20.000 1.000
20.380 17.000 1.000
20.400 17.000 1.000
20.420 18.000 1.000
20.440 17.000 1.000
20.460 13.000 1.000
20.480 14.000 1.000
20.500 18.000 1.000
20.520 17.000 1.000
20.540 17.000 1.000
20.560 21.000 1.000
20.580 20.000 1.000
20.600 17.000 1.000
20.620 18.000 1.000
20.640 21.000 1.000
20.660 24.000 1.000
20.680 23.000 1.000
20.700 23.000 1.000
20.720 25.000 1.000
20.740 18.000 1.000
20.760 16.000 1.000
20.780 15.000 1.000
20.800 18.000 1.000
20.820 20.000 1.000
20.840 23.000 1.000
20.860 18.000 1.000
20.880 18.000 1.000
20.900 18.000 1.000
20.920 17.000 1.000
20.940 19.000 1.000
20.960 17.000 1.000
20.980 18.000 1.000
21.000 17.000 1.000
21.020 20.000 1.000
21.040 21.000 1.000
21.060 20.000 1.000
21.080 17.000 1.000
21.100 21.000 1.000
21.120 20.000 1.000
21.140 19.000 1.000
21.160 17.000 1.000
21.180 19.000 1.000
21.200 25.000 1.000
21.220 27.000 1.000
21.240 22.000 1.000
21.260 14.000 1.000
21.280 18.000 1.000
21.300 27.000 1.000
21.320 19.000 1.000
21.340 20.000 1.000
21.360 23.000 1.000
21.380 21.000 1.000
21.400 15.000 1.000
21.420 22.000 1.000
21.440 17.000 1.000
21.460 18.000 1.000
21.480 14.000 1.000
21.500 16.000 1.000
21.520 27.000 1.000
21.540 22.000 1.000
21.560 18.000 1.000
21.580 17.000 1.000
21.600 15.000 1.000
21.620 19.000 1.000
21.640 21.000 1.000
21.660 22.000 1.000
21.680 20.000 1.000
21.700 18.000 1.000
21.720 18.000 1.000
21.740 20.000 1.000
21.760 19.000 1.000
21.780 19.000 1.000
21.800 18.000 1.000
21.820 24.000 1.000
21.840 17.000 1.000
21.860 25.000 1.000
21.880 18.000 1.000
21.900 17.000 1.000
21.920 18.000 1.000
21.940 12.000 1.000
21.960 21.000 1.000
21.980 25.000 1.000
22.000 25.000 1.000
22.020 23.000 1.000
22.040 20.000 1.000
22.060 19.000 1.000
22.080 30.000 1.000
22.100 25.000 1.000
22.120 26.000 1.000
22.140 25.000 1.000
22.160 30.000 1.000
22.180 29.000 1.000
22.200 29.000 1.000
22.220 20.000 1.000
22.240 25.000 1.000
22.260 21.000 1.000
22.280 15.000 1.000
22.300 22.000 1.000
22.320 24.000 1.000
22.340 20.000 1.000
22.360 20.000 1.000
22.380 22.000 1.000
22.400 22.000 1.000
22.420 27.000 1.000
22.440 26.000 1.000
22.460 25.000 1.000
22.480 23.000 1.000
22.500 25.000 1.000
22.520 25.000 1.000
22.540 23.000 1.000
22.560 21.000 1.000
22.580 27.000 1.000
22.600 28.000 1.000
22.620 26.000 1.000
22.640 25.000 1.000
22.660 29.000 1.000
22.680 23.000 1.000
22.700 18.000 1.000
22.720 23.000 1.000
22.740 24.000 1.000
22.760 23.000 1.000
22.780 29.000 1.000
22.800 22.000 1.000
22.820 25.000 1.000
22.840 25.000 1.000
22.860 27.000 1.000
22.880 25.000 1.000
22.900 28.000 1.000
22.920 22.000 1.000
22.940 27.000 1.000
22.960 30.000 1.000
22.980 36.000 1.000
23.000 35.000 1.000
23.020 32.000 1.000
23.040 35.000 1.000
23.060 35.000 1.000
23.080 33.000 1.000
23.100 33.000 1.000
23.120 39.000 1.000
23.140 31.000 1.000
23.160 37.000 1.000
23.180 39.000 1.000
23.200 37.000 1.000
23.220 35.000 1.000
23.240 33.000 1.000
23.260 37.000 1.000
23.280 42.000 1.000
23.300 36.000 1.000
23.320 30.000 1.000
23.340 33.000 1.000
23.360 39.000 1.000
23.380 41.000 1.000
23.400 45.000 1.000
23.420 33.000 1.000
23.440 34.000 1.000
23.460 32.000 1.000
23.480 47.000 1.000
23.500 39.000 1.000
23.520 42.000 1.000
23.540 45.000 1.000
23.560 34.000 1.000
23.580 36.000 1.000
23.600 47.000 1.000
23.620 50.000 1.000
23.640 49.000 1.000
23.660 44.000 1.000
23.680 48.000 1.000
23.700 47.000 1.000
23.720 47.000 1.000
23.740 46.000 1.000
23.760 51.000 1.000
23.780 45.000 1.000
23.800 36.000 1.000
23.820 38.000 1.000
23.840 36.000 1.000
23.860 40.000 1.000
23.880 46.000 1.000
23.900 49.000 1.000
23.920 54.000 1.000
23.940 53.000 1.000
23.960 55.000 1.000
23.980 48.000 1.000
24.000 51.000 1.000
24.020 49.000 1.000
24.040 50.000 1.000
24.060 52.000 1.000
24.080 54.000 1.000
24.100 57.000 1.000
24.120 63.000 1.000
24.140 49.000 1.000
24.160 62.000 1.000
24.180 62.000 1.000
24.200 68.000 1.000
24.220 64.000 1.000
24.240 64.000 1.000
24.260 68.000 1.000
24.280 57.000 1.000
24.300 54.000 1.000
24.320 74.000 1.000
24.340 76.000 1.000
24.360 83.000 1.000
24.380 71.000 1.000
24.400 74.000 1.000
24.420 86.000 1.000
24.440 81.000 1.000
24.460 67.000 1.000
24.480 81.000 1.000
24.500 86.000 1.000
24.520 95.000 1.000
24.540 95.000 1.000
24.560 89.000 1.000
24.580 93.000 1.000
24.600 91.000 1.000
24.620 99.000 1.000
24.640 94.000 1.000
24.660 98.000 1.000
24.680 107.000 1.000
24.700 120.000 1.000
24.720 121.000 1.000
24.740 106.000 1.000
24.760 103.000 1.000
24.780 108.000 1.000
24.800 107.000 1.000
24.820 110.000 1.000
24.840 133.000 1.000
24.860 142.000 1.000
24.880 133.000 1.000
24.900 138.000 1.000
24.920 143.000 1.000
24.940 152.000 1.000
24.960 142.000 1.000
24.980 157.000 1.000
25.000 166.000 1.000
25.020 155.000 1.000
25.040 151.000 1.000
25.060 171.000 1.000
25.080 153.000 1.000
25.100 157.000 1.000
25.120 170.000 1.000
25.140 159.000 1.000
25.160 201.000 1.000
25.180 192.000 1.000
25.200 210.000 1.000
25.220 204.000 1.000
25.240 221.000 1.000
25.260 233.000 1.000
25.280 229.000 1.000
25.300 257.000 1.000
25.320 251.000 1.000
25.340 222.000 1.000
25.360 235.000 1.000
25.380 233.000 1.000
25.400 246.000 1.000
25.420 268.000 1.000
25.440 252.000 1.000
25.460 273.000 1.000
25.480 285.000 1.000
25.500 311.000 1.000
25.520 296.000 1.000
25.540 305.000 1.000
25.560 359.000 1.000
25.580 349.000 1.000
25.600 326.000 1.000
25.620 314.000 1.000
25.640 323.000 1.000
25.660 346.000 1.000
25.680 346.000 1.000
25.700 372.000 1.000
25.720 388.000 1.000
25.740 414.000 1.000
25.760 386.000 1.000
25.780 399.000 1.000
25.800 403.000 1.000
25.820 417.000 1.000
25.840 412.000 1.000
25.860 411.000 1.000
25.880 444.000 1.000
25.900 436.000 1.000
25.920 485.000 1.000
25.940 447.000 1.000
25.960 493.000 1.000
25.980 517.000 1.000
26.000 527.000 1.000
26.020 554.000 1.000
26.040 617.000 1.000
26.060 700.000 1.000
26.080 755.000 1.000
26.100 873.000 1.000
26.120 908.000 1.000
26.140 1002.000 1.000
26.160 1134.000 1.000
26.180 1265.000 1.000
26.200 1361.000 1.000
26.220 1494.000 1.000
26.240 1529.000 1.000
26.260 1645.000 1.000
26.280 1572.000 1.000
26.300 1512.000 1.000
26.320 1390.000 1.000
26.340 1297.000 1.000
26.360 1066.000 1.000
26.380 980.000 1.000
26.400 757.000 1.000
26.420 593.000 1.000
26.440 487.000 1.000
26.460 414.000 1.000
26.480 328.000 1.000
26.500 272.000 1.000
26.520 257.000 1.000
26.540 237.000 1.000
26.560 202.000 1.000
26.580 186.000 1.000
26.600 187.000 1.000
26.620 171.000 1.000
26.640 141.000 1.000
26.660 136.000 1.000
26.680 127.000 1.000
26.700 134.000 1.000
26.720 125.000 1.000
26.740 117.000 1.000
26.760 123.000 1.000
26.780 127.000 1.000
26.800 114.000 1.000
26.820 94.000 1.000
26.840 98.000 1.000
26.860 88.000 1.000
26.880 101.000 1.000
26.900 99.000 1.000
26.920 86.000 1.000
26.940 84.000 1.000
26.960 69.000 1.000
26.980 68.000 1.000
27.000 82.000 1.000
27.020 75.000 1.000
27.040 69.000 1.000
27.060 74.000 1.000
27.080 62.000 1.000
27.100 59.000 1.000
27.120 61.000 1.000
27.140 61.000 1.000
27.160 72.000 1.000
27.180 52.000 1.000
27.200 57.000 1.000
27.220 68.000 1.000
27.240 54.000 1.000
27.260 55.000 1.000
27.280 51.000 1.000
27.300 41.000 1.000
27.320 45.000 1.000
27.340 47.000 1.000
27.360 47.000 1.000
27.380 56.000 1.000
27.400 47.000 1.000
27.420 44.000 1.000
27.440 49.000 1.000
27.460 47.000 1.000
27.480 58.000 1.000
27.500 50.000 1.000
27.520 47.000 1.000
27.540 44.000 1.000
27.560 37.000 1.000
27.580 34.000 1.000
27.600 40.000 1.000
27.620 38.000 1.000
27.640 44.000 1.000
27.660 35.000 1.000
27.680 35.000 1.000
27.700 35.000 1.000
27.720 35.000 1.000
27.740 39.000 1.000
27.760 34.000 1.000
27.780 31.000 1.000
27.800 34.000 1.000
27.820 34.000 1.000
27.840 38.000 1.000
27.860 35.000 1.000
27.880 34.000 1.000
27.900 33.000 1.000
27.920 37.000 1.000
27.940 32.000 1.000
27.960 34.000 1.000
27.980 34.000 1.000
28.000 36.000 1.000
28.020 31.000 1.000
28.040 28.000 1.000
28.060 33.000 1.000
28.080 31.000 1.000
28.100 39.000 1.000
28.120 30.000 1.000
28.140 40.000 1.000
28.160 21.000 1.000
28.180 31.000 1.000
28.200 33.000 1.000
28.220 35.000 1.000
28.240 33.000 1.000
28.260 35.000 1.000
28.280 37.000 1.000
28.300 35.000 1.000
28.320 31.000 1.000
28.340 25.000 1.000
28.360 27.000 1.000
28.380 28.000 1.000
28.400 30.000 1.000
28.420 34.000 1.000
28.440 26.000 1.000
28.460 23.000 1.000
28.480 34.000 1.000
28.500 31.000 1.000
28.520 20.000 1.000
28.540 17.000 1.000
28.560 21.000 1.000
28.580 23.000 1.000
28.600 28.000 1.000
28.620 24.000 1.000
28.640 26.000 1.000
28.660 25.000 1.000
28.680 19.000 1.000
28.700 18.000 1.000
28.720 18.000 1.000
28.740 26.000 1.000
28.760 26.000 1.000
28.780 27.000 1.000
28.800 17.000 1.000
28.820 24.000 1.000
28.840 23.000 1.000
28.860 13.000 1.000
28.880 12.000 1.000
28.900 16.000 1.000
28.920 19.000 1.000
28.940 24.000 1.000
28.960 19.000 1.000
28.980 22.000 1.000
29.000 17.000 1.000
29.020 16.000 1.000
29.040 19.000 1.000
29.060 15.000 1.000
29.080 20.000 1.000
29.100 20.000 1.000
29.120 21.000 1.000
29.140 19.000 1.000
29.160 28.000 1.000
29.180 30.000 1.000
29.200 28.000 1.000
29.220 23.000 1.000
29.240 18.000 1.000
29.260 25.000 1.000
29.280 17.000 1.000
29.300 17.000 1.000
29.320 14.000 1.000
29.340 17.000 1.000
29.360 13.000 1.000
29.380 17.000 1.000
29.400 21.000 1.000
29.420 15.000 1.000
29.440 16.000 1.000
29.460 16.000 1.000
29.480 20.000 1.000
29.500 13.000 1.000
29.520 16.000 1.000
29.540 18.000 1.000
29.560 14.000 1.000
29.580 14.000 1.000
29.600 20.000 1.000
29.620 20.000 1.000
29.640 14.000 1.000
29.660 22.000 1.000
29.680 17.000 1.000
29.700 13.000 1.000
29.720 14.000 1.000
29.740 18.000 1.000
29.760 17.000 1.000
29.780 12.000 1.000
29.800 16.000 1.000
29.820 15.000 1.000
29.840 14.000 1.000
29.860 21.000 1.000
29.880 16.000 1.000
29.900 13.000 1.000
29.920 13.000 1.000
29.940 9.000 1.000
29.960 10.000 1.000
29.980 8.000 1.000
30.000 12.000 1.000
30.020 10.000 1.000
30.040 11.000 1.000
30.060 13.000 1.000
30.080 15.000 1.000
30.100 16.000 1.000
30.120 14.000 1.000
30.140 12.000 1.000
30.160 15.000 1.000
30.180 14.000 1.000
30.200 18.000 1.000
30.220 18.000 1.000
30.240 18.000 1.000
30.260 20.000 1.000
30.280 11.000 1.000
30.300 12.000 1.000
30.320 11.000 1.000
30.340 12.000 1.000
30.360 11.000 1.000
30.380 11.000 1.000
30.400 13.000 1.000
30.420 12.000 1.000
30.440 13.000 1.000
30.460 11.000 1.000
30.480 10.000 1.000
30.500 14.000 1.000
30.520 16.000 1.000
30.540 20.000 1.000
30.560 16.000 1.000
30.580 17.000 1.000
30.600 18.000 1.000
30.620 17.000 1.000
30.640 17.000 1.000
30.660 20.000 1.000
30.680 24.000 1.000
30.700 17.000 1.000
30.720 24.000 1.000
30.740 18.000 1.000
30.760 12.000 1.000
30.780 11.000 1.000
30.800 12.000 1.000
30.820 12.000 1.000
30.840 10.000 1.000
30.860 13.000 1.000
30.880 11.000 1.000
30.900 9.000 1.000
30.920 10.000 1.000
30.940 11.000 1.000
30.960 10.000 1.000
30.980 9.000 1.000
31.000 8.000 1.000
31.020 12.000 1.000
31.040 15.000 1.000
31.060 14.000 1.000
31.080 13.000 1.000
31.100 18.000 1.000
31.120 12.000 1.000
31.140 7.000 1.000
31.160 9.000 1.000
31.180 12.000 1.000
31.200 18.000 1.000
31.220 9.000 1.000
31.240 8.000 1.000
31.260 11.000 1.000
31.280 11.000 1.000
31.300 16.000 1.000
31.320 10.000 1.000
31.340 10.000 1.000
31.360 10.000 1.000
31.380 9.000 1.000
31.400 13.000 1.000
31.420 15.000 1.000
31.440 10.000 1.000
31.460 12.000 1.000
31.480 15.000 1.000
31.500 10.000 1.000
31.520 5.000 1.000
31.540 16.000 1.000
31.560 12.000 1.000
31.580 7.000 1.000
31.600 8.000 1.000
31.620 9.000 1.000
31.640 15.000 1.000
31.660 11.000 1.000
31.680 6.000 1.000
31.700 7.000 1.000
31.720 8.000 1.000
31.740 4.000 1.000
31.760 9.000 1.000
31.780 11.000 1.000
31.800 10.000 1.000
31.820 13.000 1.000
31.840 8.000 1.000
31.860 9.000 1.000
31.880 12.000 1.000
31.900 10.000 1.000
31.920 11.000 1.000
31.940 9.000 1.000
31.960 10.000 1.000
31.980 15.000 1.000
32.000 11.000 1.000
32.020 7.000 1.000
32.040 5.000 1.000
32.060 6.000 1.000
32.080 11.000 1.000
32.100 6.000 1.000
32.120 12.000 1.000
32.140 8.000 1.000
32.160 9.000 1.000
32.180 8.000 1.000
32.200 8.000 1.000
32.220 9.000 1.000
32.240 10.000 1.000
32.260 10.000 1.000
32.280 8.000 1.000
32.300 7.000 1.000
32.320 6.000 1.000
32.340 7.000 1.000
32.360 12.000 1.000
32.380 9.000 1.000
32.400 5.000 1.000
32.420 9.000 1.000
32.440 4.000 1.000
32.460 6.000 1.000
32.480 12.000 1.000
32.500 10.000 1.000
32.520 13.000 1.000
32.540 7.000 1.000
32.560 7.000 1.000
32.580 10.000 1.000
32.600 8.000 1.000
32.620 10.000 1.000
32.640 10.000 1.000
32.660 7.000 1.000
32.680 7.000 1.000
32.700 10.000 1.000
32.720 12.000 1.000
32.740 6.000 1.000
32.760 12.000 1.000
32.780 9.000 1.000
32.800 8.000 1.000
32.820 7.000 1.000
32.840 8.000 1.000
32.860 7.000 1.000
32.880 9.000 1.000
32.900 11.000 1.000
32.920 11.000 1.000
32.940 8.000 1.000
32.960 10.000 1.000
32.980 14.000 1.000
33.000 9.000 1.000
33.020 9.000 1.000
33.040 7.000 1.000
33.060 8.000 1.000
33.080 9.000 1.000
33.100 13.000 1.000
33.120 10.000 1.000
33.140 4.000 1.000
33.160 3.000 1.000
33.180 8.000 1.000
33.200 6.000 1.000
33.220 4.000 1.000
33.240 9.000 1.000
33.260 5.000 1.000
33.280 8.000 1.000
33.300 5.000 1.000
33.320 5.000 1.000
33.340 3.000 1.000
33.360 9.000 1.000
33.380 8.000 1.000
33.400 8.000 1.000
33.420 6.000 1.000
33.440 5.000 1.000
33.460 3.000 1.000
33.480 4.000 1.000
33.500 5.000 1.000
33.520 9.000 1.000
33.540 10.000 1.000
33.560 8.000 1.000
33.580 12.000 1.000
33.600 6.000 1.000
33.620 5.000 1.000
33.640 10.000 1.000
33.660 10.000 1.000
33.680 8.000 1.000
33.700 12.000 1.000
33.720 6.000 1.000
33.740 2.000 1.000
33.760 4.000 1.000
33.780 6.000 1.000
33.800 15.000 1.000
33.820 6.000 1.000
33.840 10.000 1.000
33.860 10.000 1.000
33.880 4.000 1.000
33.900 5.000 1.000
33.920 6.000 1.000
33.940 11.000 1.000
33.960 10.000 1.000
33.980 6.000 1.000
34.000 11.000 1.000
34.020 11.000 1.000
34.040 8.000 1.000
34.060 9.000 1.000
34.080 7.000 1.000
34.100 5.000 1.000
34.120 8.000 1.000
34.140 6.000 1.000
34.160 10.000 1.000
34.180 6.000 1.000
34.200 9.000 1.000
34.220 10.000 1.000
34.240 13.000 1.000
34.260 7.000 1.000
34.280 8.000 1.000
34.300 6.000 1.000
34.320 13.000 1.000
34.340 13.000 1.000
34.360 10.000 1.000
34.380 7.000 1.000
34.400 3.000 1.000
34.420 8.000 1.000
34.440 9.000 1.000
34.460 10.000 1.000
34.480 13.000 1.000
34.500 10.000 1.000
34.520 13.000 1.000
34.540 13.000 1.000
34.560 12.000 1.000
34.580 8.000 1.000
34.600 14.000 1.000
34.620 17.000 1.000
34.640 13.000 1.000
34.660 16.000 1.000
34.680 12.000 1.000
34.700 8.000 1.000
34.720 10.000 1.000
34.740 9.000 1.000
34.760 11.000 1.000
34.780 15.000 1.000
34.800 11.000 1.000
34.820 14.000 1.000
34.840 13.000 1.000
34.860 11.000 1.000
34.880 13.000 1.000
34.900 11.000 1.000
34.920 12.000 1.000
34.940 13.000 1.000
34.960 14.000 1.000
34.980 8.000 1.000
35.000 10.000 1.000
35.020 9.000 1.000
35.040 10.000 1.000
35.060 12.000 1.000
35.080 9.000 1.000
35.100 11.000 1.000
35.120 11.000 1.000
35.140 10.000 1.000
35.160 10.000 1.000
35.180 11.000 1.000
35.200 11.000 1.000
35.220 10.000 1.000
35.240 9.000 1.000
35.260 13.000 1.000
35.280 11.000 1.000
35.300 12.000 1.000
35.320 9.000 1.000
35.340 9.000 1.000
35.360 15.000 1.000
35.380 5.000 1.000
35.400 6.000 1.000
35.420 9.000 1.000
35.440 8.000 1.000
35.460 8.000 1.000
35.480 11.000 1.000
35.500 9.000 1.000
35.520 17.000 1.000
35.540 9.000 1.000
35.560 9.000 1.000
35.580 12.000 1.000
35.600 10.000 1.000
35.620 6.000 1.000
35.640 4.000 1.000
35.660 17.000 1.000
35.680 13.000 1.000
35.700 15.000 1.000
35.720 7.000 1.000
35.740 11.000 1.000
35.760 16.000 1.000
35.780 16.000 1.000
35.800 13.000 1.000
35.820 12.000 1.000
35.840 11.000 1.000
35.860 9.000 1.000
35.880 17.000 1.000
35.900 5.000 1.000
35.920 12.000 1.000
35.940 11.000 1.000
35.960 7.000 1.000
35.980 9.000 1.000
36.000 14.000 1.000
36.020 9.000 1.000
36.040 9.000 1.000
36.060 10.000 1.000
36.080 13.000 1.000
36.100 10.000 1.000
36.120 14.000 1.000
36.140 13.000 1.000
36.160 14.000 1.000
36.180 6.000 1.000
36.200 11.000 1.000
36.220 14.000 1.000
36.240 13.000 1.000
36.260 10.000 1.000
36.280 8.000 1.000
36.300 13.000 1.000
36.320 12.000 1.000
36.340 7.000 1.000
36.360 5.000 1.000
36.380 6.000 1.000
36.400 10.000 1.000
36.420 11.000 1.000
36.440 7.000 1.000
36.460 7.000 1.000
36.480 8.000 1.000
36.500 8.000 1.000
36.520 11.000 1.000
36.540 14.000 1.000
36.560 13.000 1.000
36.580 8.000 1.000
36.600 10.000 1.000
36.620 8.000 1.000
36.640 10.000 1.000
36.660 7.000 1.000
36.680 2.000 1.000
36.700 13.000 1.000
36.720 18.000 1.000
36.740 17.000 1.000
36.760 14.000 1.000
36.780 6.000 1.000
36.800 15.000 1.000
36.820 10.000 1.000
36.840 11.000 1.000
36.860 12.000 1.000
36.880 9.000 1.000
36.900 8.000 1.000
36.920 10.000 1.000
36.940 10.000 1.000
36.960 15.000 1.000
36.980 10.000 1.000
37.000 9.000 1.000
37.020 11.000 1.000
37.040 15.000 1.000
37.060 9.000 1.000
37.080 9.000 1.000
37.100 5.000 1.000
37.120 10.000 1.000
37.140 12.000 1.000
37.160 8.000 1.000
37.180 7.000 1.000
37.200 7.000 1.000
37.220 5.000 1.000
37.240 11.000 1.000
37.260 7.000 1.000
37.280 11.000 1.000
37.300 9.000 1.000
37.320 8.000 1.000
37.340 8.000 1.000
37.360 6.000 1.000
37.380 7.000 1.000
37.400 10.000 1.000
37.420 9.000 1.000
37.440 5.000 1.000
37.460 3.000 1.000
37.480 9.000 1.000
37.500 6.000 1.000
37.520 7.000 1.000
37.540 8.000 1.000
37.560 7.000 1.000
37.580 8.000 1.000
37.600 9.000 1.000
37.620 7.000 1.000
37.640 6.000 1.000
37.660 5.000 1.000
37.680 6.000 1.000
37.700 7.000 1.000
37.720 11.000 1.000
37.740 5.000 1.000
37.760 11.000 1.000
37.780 11.000 1.000
37.800 9.000 1.000
37.820 7.000 1.000
37.840 12.000 1.000
37.860 9.000 1.000
37.880 11.000 1.000
37.900 6.000 1.000
37.920 6.000 1.000
37.940 9.000 1.000
37.960 7.000 1.000
37.980 6.000 1.000
38.000 6.000 1.000
38.020 10.000 1.000
38.040 9.000 1.000
38.060 5.000 1.000
38.080 3.000 1.000
38.100 7.000 1.000
38.120 5.000 1.000
38.140 4.000 1.000
38.160 4.000 1.000
38.180 6.000 1.000
38.200 6.000 1.000
38.220 10.000 1.000
38.240 8.000 1.000
38.260 7.000 1.000
38.280 7.000 1.000
38.300 4.000 1.000
38.320 6.000 1.000
38.340 6.000 1.000
38.360 7.000 1.000
38.380 9.000 1.000
38.400 6.000 1.000
38.420 12.000 1.000
38.440 12.000 1.000
38.460 8.000 1.000
38.480 6.000 1.000
38.500 7.000 1.000
38.520 12.000 1.000
38.540 13.000 1.000
38.560 6.000 1.000
38.580 8.000 1.000
38.600 3.000 1.000
38.620 5.000 1.000
38.640 12.000 1.000
38.660 3.000 1.000
38.680 10.000 1.000
38.700 8.000 1.000
38.720 9.000 1.000
38.740 7.000 1.000
38.760 6.000 1.000
38.780 9.000 1.000
38.800 10.000 1.000
38.820 9.000 1.000
38.840 4.000 1.000
38.860 7.000 1.000
38.880 10.000 1.000
38.900 7.000 1.000
38.920 9.000 1.000
38.940 9.000 1.000
38.960 9.000 1.000
38.980 4.000 1.000
39.000 9.000 1.000
39.020 12.000 1.000
39.040 13.000 1.000
39.060 6.000 1.000
39.080 8.000 1.000
39.100 9.000 1.000
39.120 4.000 1.000
39.140 6.000 1.000
39.160 7.000 1.000
39.180 14.000 1.000
39.200 11.000 1.000
39.220 10.000 1.000
39.240 9.000 1.000
39.260 12.000 1.000
39.280 12.000 1.000
39.300 12.000 1.000
39.320 5.000 1.000
39.340 11.000 1.000
39.360 8.000 1.000
39.380 4.000 1.000
39.400 8.000 1.000
39.420 8.000 1.000
39.440 9.000 1.000
39.460 12.000 1.000
39.480 12.000 1.000
39.500 8.000 1.000
39.520 11.000 1.000
39.540 2.000 1.000
39.560 7.000 1.000
39.580 8.000 1.000
39.600 8.000 1.000
39.620 13.000 1.000
39.640 17.000 1.000
39.660 11.000 1.000
39.680 10.000 1.000
39.700 7.000 1.000
39.720 9.000 1.000
39.740 6.000 1.000
39.760 7.000 1.000
39.780 5.000 1.000
39.800 2.000 1.000
39.820 7.000 1.000
39.840 13.000 1.000
39.860 9.000 1.000
39.880 6.000 1.000
39.900 6.000 1.000
39.920 8.000 1.000
39.940 10.000 1.000
39.960 6.000 1.000
39.980 11.000 1.000
40.000 3.000 1.000
40.020 10.000 1.000
40.040 7.000 1.000
40.060 12.000 1.000
40.080 9.000 1.000
40.100 6.000 1.000
40.120 8.000 1.000
40.140 16.000 1.000
40.160 12.000 1.000
40.180 9.000 1.000
40.200 5.000 1.000
40.220 7.000 1.000
40.240 6.000 1.000
40.260 6.000 1.000
40.280 8.000 1.000
40.300 10.000 1.000
40.320 17.000 1.000
40.340 17.000 1.000
40.360 12.000 1.000
40.380 4.000 1.000
40.400 6.000 1.000
40.420 6.000 1.000
40.440 6.000 1.000
40.460 7.000 1.000
40.480 4.000 1.000
40.500 8.000 1.000
40.520 12.000 1.000
40.540 11.000 1.000
40.560 7.000 1.000
40.580 16.000 1.000
40.600 9.000 1.000
40.620 11.000 1.000
40.640 7.000 1.000
40.660 5.000 1.000
40.680 8.000 1.000
40.700 8.000 1.000
40.720 5.000 1.000
40.740 6.000 1.000
40.760 4.000 1.000
40.780 11.000 1.000
40.800 9.000 1.000
40.820 8.000 1.000
40.840 7.000 1.000
40.860 9.000 1.000
40.880 10.000 1.000
40.900 9.000 1.000
40.920 9.000 1.000
40.940 5.000 1.000
40.960 7.000 1.000
40.980 9.000 1.000
41.000 10.000 1.000
41.020 11.000 1.000
41.040 11.000 1.000
41.060 7.000 1.000
41.080 4.000 1.000
41.100 7.000 1.000
41.120 8.000 1.000
41.140 5.000 1.000
41.160 8.000 1.000
41.180 10.000 1.000
41.200 11.000 1.000
41.220 9.000 1.000
41.240 10.000 1.000
41.260 8.000 1.000
41.280 7.000 1.000
41.300 5.000 1.000
41.320 9.000 1.000
41.340 9.000 1.000
41.360 6.000 1.000
41.380 6.000 1.000
41.400 9.000 1.000
41.420 9.000 1.000
41.440 9.000 1.000
41.460 8.000 1.000
41.480 13.000 1.000
41.500 8.000 1.000
41.520 8.000 1.000
41.540 8.000 1.000
41.560 7.000 1.000
41.580 9.000 1.000
41.600 10.000 1.000
41.620 7.000 1.000
41.640 6.000 1.000
41.660 4.000 1.000
41.680 6.000 1.000
41.700 9.000 1.000
41.720 8.000 1.000
41.740 12.000 1.000
41.760 11.000 1.000
41.780 7.000 1.000
41.800 12.000 1.000
41.820 9.000 1.000
41.840 12.000 1.000
41.860 10.000 1.000
41.880 9.000 1.000
41.900 7.000 1.000
41.920 11.000 1.000
41.940 9.000 1.000
41.960 13.000 1.000
41.980 6.000 1.000
42.000 5.000 1.000
42.020 12.000 1.000
42.040 8.000 1.000
42.060 12.000 1.000
42.080 10.000 1.000
42.100 14.000 1.000
42.120 11.000 1.000
42.140 12.000 1.000
42.160 10.000 1.000
42.180 12.000 1.000
42.200 16.000 1.000
42.220 21.000 1.000
42.240 15.000 1.000
42.260 11.000 1.000
42.280 8.000 1.000
42.300 17.000 1.000
42.320 14.000 1.000
42.340 6.000 1.000
42.360 13.000 1.000
42.380 15.000 1.000
42.400 8.000 1.000
42.420 7.000 1.000
42.440 13.000 1.000
42.460 8.000 1.000
42.480 16.000 1.000
42.500 11.000 1.000
42.520 14.000 1.000
42.540 12.000 1.000
42.560 13.000 1.000
42.580 11.000 1.000
42.600 14.000 1.000
42.620 10.000 1.000
42.640 8.000 1.000
42.660 16.000 1.000
42.680 14.000 1.000
42.700 8.000 1.000
42.720 9.000 1.000
42.740 19.000 1.000
42.760 16.000 1.000
42.780 13.000 1.000
42.800 8.000 1.000
42.820 16.000 1.000
42.840 14.000 1.000
42.860 15.000 1.000
42.880 15.000 1.000
42.900 17.000 1.000
42.920 16.000 1.000
42.940 10.000 1.000
42.960 12.000 1.000
42.980 10.000 1.000
43.000 15.000 1.000
43.020 14.000 1.000
43.040 11.000 1.000
43.060 13.000 1.000
43.080 8.000 1.000
43.100 16.000 1.000
43.120 10.000 1.000
43.140 9.000 1.000
43.160 17.000 1.000
43.180 11.000 1.000
43.200 5.000 1.000
43.220 11.000 1.000
43.240 13.000 1.000
43.260 10.000 1.000
43.280 12.000 1.000
43.300 18.000 1.000
43.320 13.000 1.000
43.340 15.000 1.000
43.360 14.000 1.000
43.380 13.000 1.000
43.400 12.000 1.000
43.420 14.000 1.000
43.440 10.000 1.000
43.460 13.000 1.000
43.480 11.000 1.000
43.500 10.000 1.000
43.520 8.000 1.000
43.540 13.000 1.000
43.560 11.000 1.000
43.580 15.000 1.000
43.600 14.000 1.000
43.620 17.000 1.000
43.640 11.000 1.000
43.660 14.000 1.000
43.680 6.000 1.000
43.700 14.000 1.000
43.720 17.000 1.000
43.740 13.000 1.000
43.760 16.000 1.000
43.780 9.000 1.000
43.800 12.000 1.000
43.820 8.000 1.000
43.840 11.000 1.000
43.860 4.000 1.000
43.880 6.000 1.000
43.900 13.000 1.000
43.920 12.000 1.000
43.940 10.000 1.000
43.960 13.000 1.000
43.980 12.000 1.000
44.000 13.000 1.000
44.020 9.000 1.000
44.040 12.000 1.000
44.060 18.000 1.000
44.080 9.000 1.000
44.100 13.000 1.000
44.120 7.000 1.000
44.140 16.000 1.000
44.160 12.000 1.000
44.180 9.000 1.000
44.200 12.000 1.000
44.220 10.000 1.000
44.240 7.000 1.000
44.260 10.000 1.000
44.280 13.000 1.000
44.300 12.000 1.000
44.320 4.000 1.000
44.340 10.000 1.000
44.360 15.000 1.000
44.380 11.000 1.000
44.400 14.000 1.000
44.420 12.000 1.000
44.440 5.000 1.000
44.460 9.000 1.000
44.480 7.000 1.000
44.500 6.000 1.000
44.520 2.000 1.000
44.540 9.000 1.000
44.560 14.000 1.000
44.580 12.000 1.000
44.600 14.000 1.000
44.620 17.000 1.000
44.640 12.000 1.000
44.660 10.000 1.000
44.680 12.000 1.000
44.700 12.000 1.000
44.720 11.000 1.000
44.740 15.000 1.000
44.760 9.000 1.000
44.780 10.000 1.000
44.800 13.000 1.000
44.820 11.000 1.000
44.840 4.000 1.000
44.860 13.000 1.000
44.880 11.000 1.000
44.900 9.000 1.000
44.920 7.000 1.000
44.940 9.000 1.000
44.960 15.000 1.000
44.980 10.000 1.000
45.000 11.000 1.000
45.020 12.000 1.000
45.040 9.000 1.000
45.060 11.000 1.000
45.080 5.000 1.000
45.100 4.000 1.000
45.120 9.000 1.000
45.140 5.000 1.000
45.160 7.000 1.000
45.180 8.000 1.000
45.200 12.000 1.000
45.220 12.000 1.000
45.240 9.000 1.000
45.260 10.000 1.000
45.280 8.000 1.000
45.300 5.000 1.000
45.320 6.000 1.000
45.340 7.000 1.000
45.360 7.000 1.000
45.380 4.000 1.000
45.400 2.000 1.000
45.420 12.000 1.000
45.440 5.000 1.000
45.460 10.000 1.000
45.480 9.000 1.000
45.500 8.000 1.000
45.520 8.000 1.000
45.540 8.000 1.000
45.560 10.000 1.000
45.580 7.000 1.000
45.600 5.000 1.000
45.620 8.000 1.000
45.640 10.000 1.000
45.660 8.000 1.000
45.680 9.000 1.000
45.700 9.000 1.000
45.720 7.000 1.000
45.740 11.000 1.000
45.760 7.000 1.000
45.780 7.000 1.000
45.800 5.000 1.000
45.820 6.000 1.000
45.840 7.000 1.000
45.860 4.000 1.000
45.880 9.000 1.000
45.900 10.000 1.000
45.920 6.000 1.000
45.940 5.000 1.000
45.960 13.000 1.000
45.980 10.000 1.000
46.000 10.000 1.000
46.020 13.000 1.000
46.040 8.000 1.000
46.060 9.000 1.000
46.080 10.000 1.000
46.100 12.000 1.000
46.120 10.000 1.000
46.140 10.000 1.000
46.160 11.000 1.000
46.180 13.000 1.000
46.200 7.000 1.000
46.220 7.000 1.000
46.240 7.000 1.000
46.260 10.000 1.000
46.280 10.000 1.000
46.300 12.000 1.000
46.320 7.000 1.000
46.340 7.000 1.000
46.360 12.000 1.000
46.380 7.000 1.000
46.400 8.000 1.000
46.420 10.000 1.000
46.440 6.000 1.000
46.460 6.000 1.000
46.480 8.000 1.000
46.500 9.000 1.000
46.520 14.000 1.000
46.540 10.000 1.000
46.560 5.000 1.000
46.580 7.000 1.000
46.600 8.000 1.000
46.620 13.000 1.000
46.640 9.000 1.000
46.660 10.000 1.000
46.680 6.000 1.000
46.700 7.000 1.000
46.720 7.000 1.000
46.740 4.000 1.000
46.760 6.000 1.000
46.780 7.000 1.000
46.800 10.000 1.000
46.820 8.000 1.000
46.840 7.000 1.000
46.860 7.000 1.000
46.880 5.000 1.000
46.900 9.000 1.000
46.920 6.000 1.000
46.940 7.000 1.000
46.960 10.000 1.000
46.980 10.000 1.000
47.000 10.000 1.000
47.020 7.000 1.000
47.040 10.000 1.000
47.060 8.000 1.000
47.080 7.000 1.000
47.100 5.000 1.000
47.120 7.000 1.000
47.140 7.000 1.000
47.160 12.000 1.000
47.180 16.000 1.000
47.200 10.000 1.000
47.220 6.000 1.000
47.240 9.000 1.000
47.260 3.000 1.000
47.280 6.000 1.000
47.300 6.000 1.000
47.320 9.000 1.000
47.340 9.000 1.000
47.360 7.000 1.000
47.380 15.000 1.000
47.400 14.000 1.000
47.420 10.000 1.000
47.440 6.000 1.000
47.460 6.000 1.000
47.480 8.000 1.000
47.500 10.000 1.000
47.520 6.000 1.000
47.540 6.000 1.000
47.560 6.000 1.000
47.580 7.000 1.000
47.600 6.000 1.000
47.620 7.000 1.000
47.640 8.000 1.000
47.660 11.000 1.000
47.680 10.000 1.000
47.700 12.000 1.000
47.720 10.000 1.000
47.740 12.000 1.000
47.760 7.000 1.000
47.780 6.000 1.000
47.800 10.000 1.000
47.820 12.000 1.000
47.840 11.000 1.000
47.860 6.000 1.000
47.880 10.000 1.000
47.900 8.000 1.000
47.920 10.000 1.000
47.940 10.000 1.000
47.960 11.000 1.000
47.980 6.000 1.000
48.000 8.000 1.000
48.020 10.000 1.000
48.040 4.000 1.000
48.060 4.000 1.000
48.080 8.000 1.000
48.100 5.000 1.000
48.120 8.000 1.000
48.140 8.000 1.000
48.160 8.000 1.000
48.180 7.000 1.000
48.200 15.000 1.000
48.220 11.000 1.000
48.240 9.000 1.000
48.260 12.000 1.000
48.280 11.000 1.000
48.300 8.000 1.000
48.320 8.000 1.000
48.340 9.000 1.000
48.360 9.000 1.000
48.380 9.000 1.000
48.400 6.000 1.000
48.420 6.000 1.000
48.440 14.000 1.000
48.460 6.000 1.000
48.480 7.000 1.000
48.500 9.000 1.000
48.520 10.000 1.000
48.540 4.000 1.000
48.560 11.000 1.000
48.580 8.000 1.000
48.600 6.000 1.000
48.620 9.000 1.000
48.640 8.000 1.000
48.660 8.000 1.000
48.680 8.000 1.000
48.700 4.000 1.000
48.720 5.000 1.000
48.740 3.000 1.000
48.760 5.000 1.000
48.780 6.000 1.000
48.800 9.000 1.000
48.820 8.000 1.000
48.840 6.000 1.000
48.860 5.000 1.000
48.880 5.000 1.000
48.900 7.000 1.000
48.920 6.000 1.000
48.940 5.000 1.000
48.960 6.000 1.000
48.980 6.000 1.000
49.000 7.000 1.000
49.020 9.000 1.000
49.040 9.000 1.000
49.060 4.000 1.000
49.080 4.000 1.000
49.100 7.000 1.000
49.120 10.000 1.000
49.140 7.000 1.000
49.160 8.000 1.000
49.180 7.000 1.000
49.200 10.000 1.000
49.220 10.000 1.000
49.240 12.000 1.000
49.260 9.000 1.000
49.280 8.000 1.000
49.300 12.000 1.000
49.320 6.000 1.000
49.340 7.000 1.000
49.360 7.000 1.000
49.380 12.000 1.000
49.400 10.000 1.000
49.420 4.000 1.000
49.440 10.000 1.000
49.460 13.000 1.000
49.480 11.000 1.000
49.500 7.000 1.000
49.520 13.000 1.000
49.540 8.000 1.000
49.560 5.000 1.000
49.580 6.000 1.000
49.600 9.000 1.000
49.620 10.000 1.000
49.640 13.000 1.000
49.660 9.000 1.000
49.680 7.000 1.000
49.700 7.000 1.000
49.720 9.000 1.000
49.740 9.000 1.000
49.760 11.000 1.000
49.780 6.000 1.000
49.800 7.000 1.000
49.820 8.000 1.000
49.840 5.000 1.000
49.860 9.000 1.000
49.880 11.000 1.000
49.900 14.000 1.000
49.920 8.000 1.000
49.940 9.000 1.000
49.960 6.000 1.000
49.980 6.000 1.000
50.000 8.000 1.000
50.020 4.000 1.000
50.040 6.000 1.000
50.060 10.000 1.000
50.080 11.000 1.000
50.100 12.000 1.000
50.120 11.000 1.000
50.140 17.000 1.000
50.160 9.000 1.000
50.180 6.000 1.000
50.200 9.000 1.000
50.220 6.000 1.000
50.240 10.000 1.000
50.260 6.000 1.000
50.280 9.000 1.000
50.300 6.000 1.000
50.320 15.000 1.000
50.340 10.000 1.000
50.360 6.000 1.000
50.380 8.000 1.000
50.400 8.000 1.000
50.420 4.000 1.000
50.440 13.000 1.000
50.460 16.000 1.000
50.480 9.000 1.000
50.500 16.000 1.000
50.520 10.000 1.000
50.540 9.000 1.000
50.560 11.000 1.000
50.580 7.000 1.000
50.600 9.000 1.000
50.620 8.000 1.000
50.640 6.000 1.000
50.660 10.000 1.000
50.680 9.000 1.000
50.700 13.000 1.000
50.720 7.000 1.000
50.740 6.000 1.000
50.760 10.000 1.000
50.780 8.000 1.000
50.800 14.000 1.000
50.820 8.000 1.000
50.840 11.000 1.000
50.860 10.000 1.000
50.880 6.000 1.000
50.900 5.000 1.000
50.920 12.000 1.000
50.940 9.000 1.000
50.960 10.000 1.000
50.980 7.000 1.000
51.000 9.000 1.000
51.020 11.000 1.000
51.040 12.000 1.000
51.060 9.000 1.000
51.080 12.000 1.000
51.100 10.000 1.000
51.120 12.000 1.000
51.140 9.000 1.000
51.160 9.000 1.000
51.180 9.000 1.000
51.200 9.000 1.000
51.220 12.000 1.000
51.240 11.000 1.000
51.260 8.000 1.000
51.280 9.000 1.000
51.300 4.000 1.000
51.320 5.000 1.000
51.340 6.000 1.000
51.360 11.000 1.000
51.380 10.000 1.000
51.400 13.000 1.000
51.420 7.000 1.000
51.440 14.000 1.000
51.460 13.000 1.000
51.480 7.000 1.000
51.500 5.000 1.000
51.520 10.000 1.000
51.540 15.000 1.000
51.560 11.000 1.000
51.580 10.000 1.000
51.600 13.000 1.000
51.620 11.000 1.000
51.640 9.000 1.000
51.660 9.000 1.000
51.680 6.000 1.000
51.700 17.000 1.000
51.720 14.000 1.000
51.740 12.000 1.000
51.760 7.000 1.000
51.780 7.000 1.000
51.800 14.000 1.000
51.820 12.000 1.000
51.840 6.000 1.000
51.860 5.000 1.000
51.880 14.000 1.000
51.900 11.000 1.000
51.920 8.000 1.000
51.940 10.000 1.000
51.960 9.000 1.000
51.980 10.000 1.000
52.000 9.000 1.000
52.020 10.000 1.000
52.040 9.000 1.000
52.060 9.000 1.000
52.080 16.000 1.000
52.100 12.000 1.000
52.120 15.000 1.000
52.140 10.000 1.000
52.160 12.000 1.000
52.180 13.000 1.000
52.200 10.000 1.000
52.220 11.000 1.000
52.240 13.000 1.000
52.260 12.000 1.000
52.280 14.000 1.000
52.300 18.000 1.000
52.320 13.000 1.000
52.340 9.000 1.000
52.360 11.000 1.000
52.380 12.000 1.000
52.400 16.000 1.000
52.420 13.000 1.000
52.440 12.000 1.000
52.460 13.000 1.000
52.480 10.000 1.000
52.500 16.000 1.000
52.520 17.000 1.000
52.540 11.000 1.000
52.560 12.000 1.000
52.580 18.000 1.000
52.600 11.000 1.000
52.620 11.000 1.000
52.640 8.000 1.000
52.660 9.000 1.000
52.680 16.000 1.000
52.700 13.000 1.000
52.720 12.000 1.000
52.740 9.000 1.000
52.760 10.000 1.000
52.780 13.000 1.000
52.800 17.000 1.000
52.820 17.000 1.000
52.840 23.000 1.000
52.860 18.000 1.000
52.880 18.000 1.000
52.900 15.000 1.000
52.920 14.000 1.000
52.940 17.000 1.000
52.960 19.000 1.000
52.980 18.000 1.000
53.000 16.000 1.000
53.020 11.000 1.000
53.040 12.000 1.000
53.060 15.000 1.000
53.080 21.000 1.000
53.100 16.000 1.000
53.120 22.000 1.000
53.140 19.000 1.000
53.160 15.000 1.000
53.180 18.000 1.000
53.200 13.000 1.000
53.220 16.000 1.000
53.240 21.000 1.000
53.260 22.000 1.000
53.280 15.000 1.000
53.300 20.000 1.000
53.320 18.000 1.000
53.340 17.000 1.000
53.360 19.000 1.000
53.380 12.000 1.000
53.400 13.000 1.000
53.420 17.000 1.000
53.440 20.000 1.000
53.460 24.000 1.000
53.480 17.000 1.000
53.500 17.000 1.000
53.520 10.000 1.000
53.540 19.000 1.000
53.560 25.000 1.000
53.580 23.000 1.000
53.600 20.000 1.000
53.620 15.000 1.000
53.640 19.000 1.000
53.660 17.000 1.000
53.680 17.000 1.000
53.700 21.000 1.000
53.720 20.000 1.000
53.740 17.000 1.000
53.760 16.000 1.000
53.780 22.000 1.000
53.800 20.000 1.000
53.820 28.000 1.000
53.840 24.000 1.000
53.860 23.000 1.000
53.880 23.000 1.000
53.900 28.000 1.000
53.920 22.000 1.000
53.940 21.000 1.000
53.960 23.000 1.000
53.980 28.000 1.000
54.000 22.000 1.000
54.020 23.000 1.000
54.040 26.000 1.000
54.060 31.000 1.000
54.080 25.000 1.000
54.100 25.000 1.000
54.120 25.000 1.000
54.140 38.000 1.000
54.160 33.000 1.000
54.180 29.000 1.000
54.200 46.000 1.000
54.220 41.000 1.000
54.240 35.000 1.000
54.260 35.000 1.000
54.280 54.000 1.000
54.300 49.000 1.000
54.320 41.000 1.000
54.340 43.000 1.000
54.360 43.000 1.000
54.380 41.000 1.000
54.400 40.000 1.000
54.420 43.000 1.000
54.440 42.000 1.000
54.460 34.000 1.000
54.480 37.000 1.000
54.500 30.000 1.000
54.520 31.000 1.000
54.540 25.000 1.000
54.560 28.000 1.000
54.580 23.000 1.000
54.600 24.000 1.000
54.620 17.000 1.000
54.640 16.000 1.000
54.660 13.000 1.000
54.680 11.000 1.000
54.700 17.000 1.000
54.720 15.000 1.000
54.740 9.000 1.000
54.760 10.000 1.000
54.780 10.000 1.000
54.800 17.000 1.000
54.820 12.000 1.000
54.840 12.000 1.000
54.860 11.000 1.000
54.880 11.000 1.000
54.900 14.000 1.000
54.920 14.000 1.000
54.940 12.000 1.000
54.960 9.000 1.000
54.980 14.000 1.000
55.000 13.000 1.000
55.020 6.000 1.000
55.040 10.000 1.000
55.060 12.000 1.000
55.080 13.000 1.000
55.100 10.000 1.000
55.120 7.000 1.000
55.140 15.000 1.000
55.160 13.000 1.000
55.180 8.000 1.000
55.200 9.000 1.000
55.220 12.000 1.000
55.240 9.000 1.000
55.260 8.000 1.000
55.280 11.000 1.000
55.300 7.000 1.000
55.320 9.000 1.000
55.340 9.000 1.000
55.360 17.000 1.000
55.380 8.000 1.000
55.400 9.000 1.000
55.420 10.000 1.000
55.440 11.000 1.000
55.460 8.000 1.000
55.480 6.000 1.000
55.500 8.000 1.000
55.520 6.000 1.000
55.540 11.000 1.000
55.560 12.000 1.000
55.580 9.000 1.000
55.600 12.000 1.000
55.620 8.000 1.000
55.640 6.000 1.000
55.660 8.000 1.000
55.680 10.000 1.000
55.700 7.000 1.000
55.720 9.000 1.000
55.740 12.000 1.000
55.760 11.000 1.000
55.780 14.000 1.000
55.800 9.000 1.000
55.820 7.000 1.000
55.840 5.000 1.000
55.860 6.000 1.000
55.880 3.000 1.000
55.900 7.000 1.000
55.920 11.000 1.000
55.940 9.000 1.000
55.960 9.000 1.000
55.980 8.000 1.000
56.000 13.000 1.000
56.020 15.000 1.000
56.040 10.000 1.000
56.060 5.000 1.000
56.080 9.000 1.000
56.100 9.000 1.000
56.120 10.000 1.000
56.140 7.000 1.000
56.160 9.000 1.000
56.180 8.000 1.000
56.200 8.000 1.000
56.220 8.000 1.000
56.240 10.000 1.000
56.260 6.000 1.000
56.280 8.000 1.000
56.300 4.000 1.000
56.320 5.000 1.000
56.340 2.000 1.000
56.360 11.000 1.000
56.380 12.000 1.000
56.400 8.000 1.000
56.420 5.000 1.000
56.440 6.000 1.000
56.460 10.000 1.000
56.480 6.000 1.000
56.500 15.000 1.000
56.520 10.000 1.000
56.540 6.000 1.000
56.560 4.000 1.000
56.580 3.000 1.000
56.600 8.000 1.000
56.620 6.000 1.000
56.640 6.000 1.000
56.660 11.000 1.000
56.680 7.000 1.000
56.700 4.000 1.000
56.720 2.000 1.000
56.740 7.000 1.000
56.760 7.000 1.000
56.780 4.000 1.000
56.800 7.000 1.000
56.820 7.000 1.000
56.840 7.000 1.000
56.860 11.000 1.000
56.880 8.000 1.000
56.900 9.000 1.000
56.920 5.000 1.000
56.940 9.000 1.000
56.960 10.000 1.000
56.980 13.000 1.000
57.000 6.000 1.000
57.020 6.000 1.000
57.040 7.000 1.000
57.060 12.000 1.000
57.080 13.000 1.000
57.100 8.000 1.000
57.120 5.000 1.000
57.140 9.000 1.000
57.160 6.000 1.000
57.180 4.000 1.000
57.200 5.000 1.000
57.220 15.000 1.000
57.240 10.000 1.000
57.260 4.000 1.000
57.280 6.000 1.000
57.300 2.000 1.000
57.320 12.000 1.000
57.340 7.000 1.000
57.360 11.000 1.000
57.380 10.000 1.000
57.400 11.000 1.000
57.420 9.000 1.000
57.440 7.000 1.000
57.460 11.000 1.000
57.480 11.000 1.000
57.500 7.000 1.000
57.520 6.000 1.000
57.540 8.000 1.000
57.560 5.000 1.000
57.580 13.000 1.000
57.600 8.000 1.000
57.620 4.000 1.000
57.640 8.000 1.000
57.660 5.000 1.000
57.680 8.000 1.000
57.700 11.000 1.000
57.720 10.000 1.000
57.740 6.000 1.000
57.760 4.000 1.000
57.780 11.000 1.000
57.800 9.000 1.000
57.820 6.000 1.000
57.840 5.000 1.000
57.860 4.000 1.000
57.880 6.000 1.000
57.900 5.000 1.000
57.920 4.000 1.000
57.940 10.000 1.000
57.960 7.000 1.000
57.980 6.000 1.000
58.000 13.000 1.000
58.020 10.000 1.000
58.040 12.000 1.000
58.060 6.000 1.000
58.080 7.000 1.000
58.100 4.000 1.000
58.120 6.000 1.000
58.140 6.000 1.000
58.160 5.000 1.000
58.180 8.000 1.000
58.200 8.000 1.000
58.220 6.000 1.000
58.240 9.000 1.000
58.260 8.000 1.000
58.280 9.000 1.000
58.300 9.000 1.000
58.320 7.000 1.000
58.340 3.000 1.000
58.360 5.000 1.000
58.380 8.000 1.000
58.400 11.000 1.000
58.420 7.000 1.000
58.440 6.000 1.000
58.460 3.000 1.000
58.480 2.000 1.000
58.500 9.000 1.000
58.520 9.000 1.000
58.540 5.000 1.000
58.560 7.000 1.000
58.580 3.000 1.000
58.600 5.000 1.000
58.620 8.000 1.000
58.640 8.000 1.000
58.660 8.000 1.000
58.680 4.000 1.000
58.700 4.000 1.000
58.720 9.000 1.000
58.740 6.000 1.000
58.760 3.000 1.000
58.780 5.000 1.000
58.800 13.000 1.000
58.820 7.000 1.000
58.840 4.000 1.000
58.860 9.000 1.000
58.880 6.000 1.000
58.900 9.000 1.000
58.920 5.000 1.000
58.940 4.000 1.000
58.960 7.000 1.000
58.980 5.000 1.000
59.000 8.000 1.000
59.020 6.000 1.000
59.040 5.000 1.000
59.060 7.000 1.000
59.080 5.000 1.000
59.100 9.000 1.000
59.120 8.000 1.000
59.140 8.000 1.000
59.160 6.000 1.000
59.180 4.000 1.000
59.200 9.000 1.000
59.220 9.000 1.000
59.240 5.000 1.000
59.260 4.000 1.000
59.280 6.000 1.000
59.300 7.000 1.000
59.320 6.000 1.000
59.340 6.000 1.000
59.360 5.000 1.000
59.380 11.000 1.000
59.400 9.000 1.000
59.420 7.000 1.000
59.440 7.000 1.000
59.460 6.000 1.000
59.480 6.000 1.000
59.500 4.000 1.000
59.520 5.000 1.000
59.540 9.000 1.000
59.560 9.000 1.000
59.580 7.000 1.000
59.600 5.000 1.000
59.620 5.000 1.000
59.640 9.000 1.000
59.660 10.000 1.000
59.680 12.000 1.000
59.700 7.000 1.000
59.720 8.000 1.000
59.740 6.000 1.000
59.760 8.000 1.000
59.780 4.000 1.000
59.800 6.000 1.000
59.820 8.000 1.000
59.840 7.000 1.000
59.860 9.000 1.000
59.880 7.000 1.000
59.900 9.000 1.000
59.920 9.000 1.000
59.940 12.000 1.000
59.960 6.000 1.000
59.980 6.000 1.000
60.000 4.000 1.000
60.020 8.000 1.000
60.040 3.000 1.000
60.060 6.000 1.000
60.080 6.000 1.000
60.100 6.000 1.000
60.120 7.000 1.000
60.140 7.000 1.000
60.160 12.000 1.000
60.180 6.000 1.000
60.200 6.000 1.000
60.220 7.000 1.000
60.240 8.000 1.000
60.260 6.000 1.000
60.280 8.000 1.000
60.300 7.000 1.000
60.320 10.000 1.000
60.340 6.000 1.000
60.360 8.000 1.000
60.380 6.000 1.000
60.400 7.000 1.000
60.420 6.000 1.000
60.440 7.000 1.000
60.460 8.000 1.000
60.480 8.000 1.000
60.500 7.000 1.000
60.520 8.000 1.000
60.540 9.000 1.000
60.560 12.000 1.000
60.580 4.000 1.000
60.600 5.000 1.000
60.620 9.000 1.000
60.640 9.000 1.000
60.660 7.000 1.000
60.680 4.000 1.000
60.700 7.000 1.000
60.720 11.000 1.000
60.740 7.000 1.000
60.760 4.000 1.000
60.780 7.000 1.000
60.800 8.000 1.000
60.820 10.000 1.000
60.840 10.000 1.000
60.860 8.000 1.000
60.880 4.000 1.000
60.900 4.000 1.000
60.920 7.000 1.000
60.940 3.000 1.000
60.960 6.000 1.000
60.980 7.000 1.000
61.000 4.000 1.000
61.020 8.000 1.000
61.040 4.000 1.000
61.060 10.000 1.000
61.080 8.000 1.000
61.100 5.000 1.000
61.120 6.000 1.000
61.140 6.000 1.000
61.160 7.000 1.000
61.180 6.000 1.000
61.200 8.000 1.000
61.220 8.000 1.000
61.240 5.000 1.000
61.260 9.000 1.000
61.280 11.000 1.000
61.300 8.000 1.000
61.320 10.000 1.000
61.340 6.000 1.000
61.360 7.000 1.000
61.380 8.000 1.000
61.400 9.000 1.000
61.420 9.000 1.000
61.440 8.000 1.000
61.460 14.000 1.000
61.480 18.000 1.000
61.500 9.000 1.000
61.520 7.000 1.000
61.540 9.000 1.000
61.560 11.000 1.000
61.580 12.000 1.000
61.600 14.000 1.000
61.620 12.000 1.000
61.640 13.000 1.000
61.660 9.000 1.000
61.680 5.000 1.000
61.700 10.000 1.000
61.720 11.000 1.000
61.740 10.000 1.000
61.760 9.000 1.000
61.780 13.000 1.000
61.800 13.000 1.000
61.820 9.000 1.000
61.840 10.000 1.000
61.860 9.000 1.000
61.880 10.000 1.000
61.900 13.000 1.000
61.920 11.000 1.000
61.940 13.000 1.000
61.960 14.000 1.000
61.980 9.000 1.000
62.000 12.000 1.000
62.020 11.000 1.000
62.040 10.000 1.000
62.060 15.000 1.000
62.080 11.000 1.000
62.100 9.000 1.000
62.120 8.000 1.000
62.140 8.000 1.000
62.160 5.000 1.000
62.180 6.000 1.000
62.200 4.000 1.000
62.220 8.000 1.000
62.240 13.000 1.000
62.260 8.000 1.000
62.280 12.000 1.000
62.300 10.000 1.000
62.320 7.000 1.000
62.340 8.000 1.000
62.360 4.000 1.000
62.380 8.000 1.000
62.400 12.000 1.000
62.420 9.000 1.000
62.440 7.000 1.000
62.460 6.000 1.000
62.480 4.000 1.000
62.500 2.000 1.000
62.520 6.000 1.000
62.540 3.000 1.000
62.560 7.000 1.000
62.580 7.000 1.000
62.600 7.000 1.000
62.620 9.000 1.000
62.640 9.000 1.000
62.660 4.000 1.000
62.680 6.000 1.000
62.700 8.000 1.000
62.720 5.000 1.000
62.740 5.000 1.000
62.760 5.000 1.000
62.780 5.000 1.000
62.800 9.000 1.000
62.820 14.000 1.000
62.840 6.000 1.000
62.860 9.000 1.000
62.880 4.000 1.000
62.900 5.000 1.000
62.920 7.000 1.000
62.940 7.000 1.000
62.960 5.000 1.000
62.980 3.000 1.000
63.000 3.000 1.000
63.020 2.000 1.000
63.040 4.000 1.000
63.060 10.000 1.000
63.080 10.000 1.000
63.100 5.000 1.000
63.120 5.000 1.000
63.140 6.000 1.000
63.160 4.000 1.000
63.180 5.000 1.000
63.200 9.000 1.000
63.220 5.000 1.000
63.240 9.000 1.000
63.260 5.000 1.000
63.280 3.000 1.000
63.300 4.000 1.000
63.320 4.000 1.000
63.340 5.000 1.000
63.360 8.000 1.000
63.380 5.000 1.000
63.400 6.000 1.000
63.420 2.000 1.000
63.440 5.000 1.000
63.460 6.000 1.000
63.480 6.000 1.000
63.500 3.000 1.000
63.520 3.000 1.000
63.540 6.000 1.000
63.560 6.000 1.000
63.580 4.000 1.000
63.600 5.000 1.000
63.620 10.000 1.000
63.640 6.000 1.000
63.660 3.000 1.000
63.680 7.000 1.000
63.700 8.000 1.000
63.720 5.000 1.000
63.740 3.000 1.000
63.760 6.000 1.000
63.780 8.000 1.000
63.800 4.000 1.000
63.820 6.000 1.000
63.840 7.000 1.000
63.860 7.000 1.000
63.880 12.000 1.000
63.900 6.000 1.000
63.920 3.000 1.000
63.940 6.000 1.000
63.960 6.000 1.000
63.980 3.000 1.000
64.000 5.000 1.000
64.020 6.000 1.000
64.040 8.000 1.000
64.060 6.000 1.000
64.080 6.000 1.000
64.100 13.000 1.000
64.120 6.000 1.000
64.140 3.000 1.000
64.160 4.000 1.000
64.180 5.000 1.000
64.200 9.000 1.000
64.220 10.000 1.000
64.240 6.000 1.000
64.260 2.000 1.000
64.280 6.000 1.000
64.300 11.000 1.000
64.320 12.000 1.000
64.340 8.000 1.000
64.360 5.000 1.000
64.380 6.000 1.000
64.400 7.000 1.000
64.420 5.000 1.000
64.440 8.000 1.000
64.460 4.000 1.000
64.480 6.000 1.000
64.500 7.000 1.000
64.520 10.000 1.000
64.540 7.000 1.000
64.560 9.000 1.000
64.580 6.000 1.000
64.600 5.000 1.000
64.620 8.000 1.000
64.640 3.000 1.000
64.660 4.000 1.000
64.680 7.000 1.000
64.700 3.000 1.000
64.720 6.000 1.000
64.740 5.000 1.000
64.760 4.000 1.000
64.780 1.000 1.000
64.800 6.000 1.000
64.820 9.000 1.000
64.840 5.000 1.000
64.860 6.000 1.000
64.880 4.000 1.000
64.900 6.000 1.000
64.920 3.000 1.000
64.940 8.000 1.000
64.960 3.000 1.000
64.980 5.000 1.000
65.000 3.000 1.000
65.020 7.000 1.000
65.040 7.000 1.000
65.060 7.000 1.000
65.080 6.000 1.000
65.100 7.000 1.000
65.120 8.000 1.000
65.140 3.000 1.000
65.160 1.000 1.000
65.180 2.000 1.000
65.200 6.000 1.000
65.220 7.000 1.000
65.240 5.000 1.000
65.260 6.000 1.000
65.280 7.000 1.000
65.300 6.000 1.000
65.320 4.000 1.000
65.340 9.000 1.000
65.360 5.000 1.000
65.380 4.000 1.000
65.400 5.000 1.000
65.420 7.000 1.000
65.440 4.000 1.000
65.460 6.000 1.000
65.480 9.000 1.000
65.500 8.000 1.000
65.520 6.000 1.000
65.540 6.000 1.000
65.560 7.000 1.000
65.580 5.000 1.000
65.600 2.000 1.000
65.620 6.000 1.000
65.640 8.000 1.000
65.660 3.000 1.000
65.680 5.000 1.000
65.700 7.000 1.000
65.720 6.000 1.000
65.740 3.000 1.000
65.760 5.000 1.000
65.780 4.000 1.000
65.800 7.000 1.000
65.820 6.000 1.000
65.840 8.000 1.000
65.860 6.000 1.000
65.880 6.000 1.000
65.900 6.000 1.000
65.920 6.000 1.000
65.940 4.000 1.000
65.960 6.000 1.000
65.980 13.000 1.000
66.000 7.000 1.000
66.020 8.000 1.000
66.040 6.000 1.000
66.060 8.000 1.000
66.080 11.000 1.000
66.100 8.000 1.000
66.120 4.000 1.000
66.140 4.000 1.000
66.160 4.000 1.000
66.180 6.000 1.000
66.200 6.000 1.000
66.220 5.000 1.000
66.240 5.000 1.000
66.260 8.000 1.000
66.280 7.000 1.000
66.300 8.000 1.000
66.320 7.000 1.000
66.340 6.000 1.000
66.360 6.000 1.000
66.380 9.000 1.000
66.400 4.000 1.000
66.420 6.000 1.000
66.440 5.000 1.000
66.460 6.000 1.000
66.480 10.000 1.000
66.500 8.000 1.000
66.520 8.000 1.000
66.540 7.000 1.000
66.560 6.000 1.000
66.580 5.000 1.000
66.600 6.000 1.000
66.620 4.000 1.000
66.640 9.000 1.000
66.660 4.000 1.000
66.680 7.000 1.000
66.700 8.000 1.000
66.720 4.000 1.000
66.740 5.000 1.000
66.760 6.000 1.000
66.780 6.000 1.000
66.800 3.000 1.000
66.820 2.000 1.000
66.840 8.000 1.000
66.860 7.000 1.000
66.880 4.000 1.000
66.900 4.000 1.000
66.920 7.000 1.000
66.940 7.000 1.000
66.960 6.000 1.000
66.980 10.000 1.000
67.000 11.000 1.000
67.020 5.000 1.000
67.040 6.000 1.000
67.060 6.000 1.000
67.080 6.000 1.000
67.100 5.000 1.000
67.120 5.000 1.000
67.140 8.000 1.000
67.160 6.000 1.000
67.180 6.000 1.000
67.200 10.000 1.000
67.220 7.000 1.000
67.240 7.000 1.000
67.260 5.000 1.000
67.280 8.000 1.000
67.300 8.000 1.000
67.320 2.000 1.000
67.340 6.000 1.000
67.360 3.000 1.000
67.380 6.000 1.000
67.400 7.000 1.000
67.420 9.000 1.000
67.440 13.000 1.000
67.460 5.000 1.000
67.480 2.000 1.000
67.500 2.000 1.000
67.520 5.000 1.000
67.540 7.000 1.000
67.560 9.000 1.000
67.580 4.000 1.000
67.600 9.000 1.000
67.620 7.000 1.000
67.640 6.000 1.000
67.660 6.000 1.000
67.680 5.000 1.000
67.700 2.000 1.000
67.720 6.000 1.000
67.740 5.000 1.000
67.760 10.000 1.000
67.780 9.000 1.000
67.800 9.000 1.000
67.820 5.000 1.000
67.840 4.000 1.000
67.860 5.000 1.000
67.880 5.000 1.000
67.900 4.000 1.000
67.920 4.000 1.000
67.940 3.000 1.000
67.960 7.000 1.000
67.980 7.000 1.000
68.000 6.000 1.000
68.020 3.000 1.000
68.040 4.000 1.000
68.060 7.000 1.000
68.080 8.000 1.000
68.100 6.000 1.000
68.120 4.000 1.000
68.140 4.000 1.000
68.160 3.000 1.000
68.180 5.000 1.000
68.200 4.000 1.000
68.220 7.000 1.000
68.240 6.000 1.000
68.260 9.000 1.000
68.280 6.000 1.000
68.300 7.000 1.000
68.320 5.000 1.000
68.340 5.000 1.000
68.360 4.000 1.000
68.380 6.000 1.000
68.400 13.000 1.000
68.420 7.000 1.000
68.440 4.000 1.000
68.460 4.000 1.000
68.480 5.000 1.000
68.500 4.000 1.000
68.520 9.000 1.000
68.540 7.000 1.000
68.560 3.000 1.000
68.580 9.000 1.000
68.600 8.000 1.000
68.620 13.000 1.000
68.640 5.000 1.000
68.660 6.000 1.000
68.680 6.000 1.000
68.700 3.000 1.000
68.720 8.000 1.000
68.740 11.000 1.000
68.760 5.000 1.000
68.780 7.000 1.000
68.800 4.000 1.000
68.820 6.000 1.000
68.840 7.000 1.000
68.860 3.000 1.000
68.880 3.000 1.000
68.900 7.000 1.000
68.920 9.000 1.000
68.940 4.000 1.000
68.960 5.000 1.000
68.980 6.000 1.000
69.000 5.000 1.000
69.020 8.000 1.000
69.040 5.000 1.000
69.060 4.000 1.000
69.080 9.000 1.000
69.100 2.000 1.000
69.120 7.000 1.000
69.140 2.000 1.000
69.160 9.000 1.000
69.180 5.000 1.000
69.200 6.000 1.000
69.220 4.000 1.000
69.240 7.000 1.000
69.260 6.000 1.000
69.280 7.000 1.000
69.300 7.000 1.000
69.320 8.000 1.000
69.340 3.000 1.000
69.360 5.000 1.000
69.380 5.000 1.000
69.400 6.000 1.000
69.420 6.000 1.000
69.440 12.000 1.000
69.460 10.000 1.000
69.480 5.000 1.000
69.500 2.000 1.000
69.520 4.000 1.000
69.540 5.000 1.000
69.560 7.000 1.000
69.580 5.000 1.000
69.600 4.000 1.000
69.620 2.000 1.000
69.640 2.000 1.000
69.660 2.000 1.000
69.680 6.000 1.000
69.700 6.000 1.000
69.720 11.000 1.000
69.740 7.000 1.000
69.760 8.000 1.000
69.780 6.000 1.000
69.800 9.000 1.000
69.820 7.000 1.000
69.840 5.000 1.000
69.860 2.000 1.000
69.880 7.000 1.000
69.900 5.000 1.000
69.920 5.000 1.000
69.940 5.000 1.000
69.960 5.000 1.000
69.980 3.000 1.000
70.000 6.000 1.000
70.020 8.000 1.000
70.040 6.000 1.000
70.060 2.000 1.000
70.080 5.000 1.000
70.100 6.000 1.000
70.120 7.000 1.000
70.140 5.000 1.000
70.160 2.000 1.000
70.180 7.000 1.000
70.200 8.000 1.000
70.220 4.000 1.000
70.240 8.000 1.000
70.260 10.000 1.000
70.280 5.000 1.000
70.300 4.000 1.000
70.320 4.000 1.000
70.340 4.000 1.000
70.360 4.000 1.000
70.380 4.000 1.000
70.400 7.000 1.000
70.420 4.000 1.000
70.440 5.000 1.000
70.460 6.000 1.000
70.480 4.000 1.000
70.500 4.000 1.000
70.520 7.000 1.000
70.540 8.000 1.000
70.560 4.000 1.000
70.580 6.000 1.000
70.600 5.000 1.000
70.620 4.000 1.000
70.640 7.000 1.000
70.660 7.000 1.000
70.680 7.000 1.000
70.700 2.000 1.000
70.720 3.000 1.000
70.740 5.000 1.000
70.760 3.000 1.000
70.780 9.000 1.000
70.800 9.000 1.000
70.820 3.000 1.000
70.840 7.000 1.000
70.860 7.000 1.000
70.880 5.000 1.000
70.900 7.000 1.000
70.920 4.000 1.000
70.940 6.000 1.000
70.960 8.000 1.000
70.980 7.000 1.000
71.000 5.000 1.000
71.020 6.000 1.000
71.040 6.000 1.000
71.060 7.000 1.000
71.080 7.000 1.000
71.100 4.000 1.000
71.120 5.000 1.000
71.140 8.000 1.000
71.160 2.000 1.000
71.180 3.000 1.000
71.200 7.000 1.000
71.220 8.000 1.000
71.240 5.000 1.000
71.260 6.000 1.000
71.280 10.000 1.000
71.300 7.000 1.000
71.320 8.000 1.000
71.340 8.000 1.000
71.360 3.000 1.000
71.380 4.000 1.000
71.400 5.000 1.000
71.420 4.000 1.000
71.440 7.000 1.000
71.460 3.000 1.000
71.480 7.000 1.000
71.500 3.000 1.000
71.520 6.000 1.000
71.540 5.000 1.000
71.560 8.000 1.000
71.580 4.000 1.000
71.600 3.000 1.000
71.620 6.000 1.000
71.640 9.000 1.000
71.660 5.000 1.000
71.680 8.000 1.000
71.700 6.000 1.000
71.720 4.000 1.000
71.740 3.000 1.000
71.760 4.000 1.000
71.780 6.000 1.000
71.800 3.000 1.000
71.820 5.000 1.000
71.840 5.000 1.000
71.860 3.000 1.000
71.880 3.000 1.000
71.900 3.000 1.000
71.920 7.000 1.000
71.940 5.000 1.000
71.960 6.000 1.000
71.980 10.000 1.000
72.000 7.000 1.000
72.020 1.000 1.000
72.040 4.000 1.000
72.060 4.000 1.000
72.080 4.000 1.000
72.100 9.000 1.000
72.120 10.000 1.000
72.140 6.000 1.000
72.160 4.000 1.000
72.180 4.000 1.000
72.200 6.000 1.000
72.220 4.000 1.000
72.240 10.000 1.000
72.260 9.000 1.000
72.280 8.000 1.000
72.300 3.000 1.000
72.320 8.000 1.000
72.340 8.000 1.000
72.360 4.000 1.000
72.380 4.000 1.000
72.400 2.000 1.000
72.420 4.000 1.000
72.440 10.000 1.000
72.460 13.000 1.000
72.480 3.000 1.000
72.500 4.000 1.000
72.520 13.000 1.000
72.540 7.000 1.000
72.560 4.000 1.000
72.580 4.000 1.000
72.600 8.000 1.000
72.620 4.000 1.000
72.640 7.000 1.000
72.660 7.000 1.000
72.680 8.000 1.000
72.700 6.000 1.000
72.720 6.000 1.000
72.740 4.000 1.000
72.760 9.000 1.000
72.780 8.000 1.000
72.800 7.000 1.000
72.820 7.000 1.000
72.840 9.000 1.000
72.860 6.000 1.000
72.880 7.000 1.000
72.900 8.000 1.000
72.920 10.000 1.000
72.940 8.000 1.000
72.960 9.000 1.000
72.980 8.000 1.000
73.000 9.000 1.000
73.020 10.000 1.000
73.040 11.000 1.000
73.060 4.000 1.000
73.080 7.000 1.000
73.100 5.000 1.000
73.120 6.000 1.000
73.140 4.000 1.000
73.160 7.000 1.000
73.180 7.000 1.000
73.200 9.000 1.000
73.220 11.000 1.000
73.240 6.000 1.000
73.260 4.000 1.000
73.280 8.000 1.000
73.300 6.000 1.000
73.320 3.000 1.000
73.340 8.000 1.000
73.360 5.000 1.000
73.380 4.000 1.000
73.400 2.000 1.000
73.420 9.000 1.000
73.440 11.000 1.000
73.460 5.000 1.000
73.480 8.000 1.000
73.500 5.000 1.000
73.520 3.000 1.000
73.540 4.000 1.000
73.560 5.000 1.000
73.580 8.000 1.000
73.600 2.000 1.000
73.620 5.000 1.000
73.640 5.000 1.000
73.660 2.000 1.000
73.680 12.000 1.000
73.700 9.000 1.000
73.720 6.000 1.000
73.740 7.000 1.000
73.760 7.000 1.000
73.780 10.000 1.000
73.800 9.000 1.000
73.820 8.000 1.000
73.840 3.000 1.000
73.860 10.000 1.000
73.880 6.000 1.000
73.900 6.000 1.000
73.920 7.000 1.000
73.940 5.000 1.000
73.960 9.000 1.000
73.980 7.000 1.000
74.000 3.000 1.000
74.020 4.000 1.000
74.040 4.000 1.000
74.060 7.000 1.000
74.080 13.000 1.000
74.100 5.000 1.000
74.120 7.000 1.000
74.140 9.000 1.000
74.160 7.000 1.000
74.180 6.000 1.000
74.200 4.000 1.000
74.220 9.000 1.000
74.240 10.000 1.000
74.260 7.000 1.000
74.280 6.000 1.000
74.300 6.000 1.000
74.320 5.000 1.000
74.340 9.000 1.000
74.360 5.000 1.000
74.380 6.000 1.000
74.400 6.000 1.000
74.420 5.000 1.000
74.440 4.000 1.000
74.460 0.000 1.000
74.480 4.000 1.000
74.500 2.000 1.000
74.520 7.000 1.000
74.540 6.000 1.000
74.560 4.000 1.000
74.580 2.000 1.000
74.600 8.000 1.000
74.620 2.000 1.000
74.640 2.000 1.000
74.660 11.000 1.000
74.680 8.000 1.000
74.700 8.000 1.000
74.720 7.000 1.000
74.740 4.000 1.000
74.760 10.000 1.000
74.780 8.000 1.000
74.800 8.000 1.000
74.820 9.000 1.000
74.840 11.000 1.000
74.860 9.000 1.000
74.880 8.000 1.000
74.900 9.000 1.000
74.920 13.000 1.000
74.940 5.000 1.000
74.960 5.000 1.000
74.980 3.000 1.000
75.000 8.000 1.000
75.020 5.000 1.000
75.040 4.000 1.000
75.060 8.000 1.000
75.080 9.000 1.000
75.100 4.000 1.000
75.120 4.000 1.000
75.140 6.000 1.000
75.160 9.000 1.000
75.180 4.000 1.000
75.200 4.000 1.000
75.220 5.000 1.000
75.240 4.000 1.000
75.260 5.000 1.000
75.280 8.000 1.000
75.300 7.000 1.000
75.320 6.000 1.000
75.340 5.000 1.000
75.360 6.000 1.000
75.380 8.000 1.000
75.400 9.000 1.000
75.420 11.000 1.000
75.440 13.000 1.000
75.460 8.000 1.000
75.480 9.000 1.000
75.500 4.000 1.000
75.520 8.000 1.000
75.540 5.000 1.000
75.560 6.000 1.000
75.580 3.000 1.000
75.600 6.000 1.000
75.620 7.000 1.000
75.640 1.000 1.000
75.660 8.000 1.000
75.680 4.000 1.000
75.700 9.000 1.000
75.720 5.000 1.000
75.740 10.000 1.000
75.760 8.000 1.000
75.780 7.000 1.000
75.800 7.000 1.000
75.820 3.000 1.000
75.840 6.000 1.000
75.860 6.000 1.000
75.880 6.000 1.000
75.900 3.000 1.000
75.920 11.000 1.000
75.940 10.000 1.000
75.960 8.000 1.000
75.980 6.000 1.000
76.000 6.000 1.000
76.020 10.000 1.000
76.040 5.000 1.000
76.060 6.000 1.000
76.080 8.000 1.000
76.100 12.000 1.000
76.120 5.000 1.000
76.140 12.000 1.000
76.160 6.000 1.000
76.180 8.000 1.000
76.200 8.000 1.000
76.220 13.000 1.000
76.240 6.000 1.000
76.260 5.000 1.000
76.280 7.000 1.000
76.300 9.000 1.000
76.320 7.000 1.000
76.340 5.000 1.000
76.360 9.000 1.000
76.380 5.000 1.000
76.400 5.000 1.000
76.420 3.000 1.000
76.440 4.000 1.000
76.460 10.000 1.000
76.480 10.000 1.000
76.500 4.000 1.000
76.520 5.000 1.000
76.540 3.000 1.000
76.560 4.000 1.000
76.580 5.000 1.000
76.600 7.000 1.000
76.620 8.000 1.000
76.640 7.000 1.000
76.660 3.000 1.000
76.680 3.000 1.000
76.700 2.000 1.000
76.720 3.000 1.000
76.740 3.000 1.000
76.760 7.000 1.000
76.780 10.000 1.000
76.800 5.000 1.000
76.820 4.000 1.000
76.840 7.000 1.000
76.860 2.000 1.000
76.880 7.000 1.000
76.900 4.000 1.000
76.920 14.000 1.000
76.940 7.000 1.000
76.960 2.000 1.000
76.980 3.000 1.000
77.000 8.000 1.000
77.020 4.000 1.000
77.040 2.000 1.000
77.060 6.000 1.000
77.080 6.000 1.000
77.100 5.000 1.000
77.120 3.000 1.000
77.140 5.000 1.000
77.160 5.000 1.000
77.180 3.000 1.000
77.200 7.000 1.000
77.220 9.000 1.000
77.240 8.000 1.000
77.260 7.000 1.000
77.280 7.000 1.000
77.300 4.000 1.000
77.320 6.000 1.000
77.340 10.000 1.000
77.360 5.000 1.000
77.380 6.000 1.000
77.400 7.000 1.000
77.420 6.000 1.000
77.440 12.000 1.000
77.460 12.000 1.000
77.480 9.000 1.000
77.500 6.000 1.000
77.520 8.000 1.000
77.540 6.000 1.000
77.560 4.000 1.000
77.580 6.000 1.000
77.600 3.000 1.000
77.620 8.000 1.000
77.640 5.000 1.000
77.660 4.000 1.000
77.680 8.000 1.000
77.700 7.000 1.000
77.720 8.000 1.000
77.740 6.000 1.000
77.760 10.000 1.000
77.780 8.000 1.000
77.800 5.000 1.000
77.820 4.000 1.000
77.840 9.000 1.000
77.860 6.000 1.000
77.880 7.000 1.000
77.900 6.000 1.000
77.920 3.000 1.000
77.940 4.000 1.000
77.960 5.000 1.000
77.980 4.000 1.000
78.000 9.000 1.000
78.020 8.000 1.000
78.040 7.000 1.000
78.060 9.000 1.000
78.080 9.000 1.000
78.100 6.000 1.000
78.120 7.000 1.000
78.140 3.000 1.000
78.160 7.000 1.000
78.180 7.000 1.000
78.200 6.000 1.000
78.220 6.000 1.000
78.240 5.000 1.000
78.260 7.000 1.000
78.280 5.000 1.000
78.300 9.000 1.000
78.320 5.000 1.000
78.340 4.000 1.000
78.360 4.000 1.000
78.380 2.000 1.000
78.400 6.000 1.000
78.420 6.000 1.000
78.440 7.000 1.000
78.460 5.000 1.000
78.480 1.000 1.000
78.500 6.000 1.000
78.520 7.000 1.000
78.540 9.000 1.000
78.560 9.000 1.000
78.580 3.000 1.000
78.600 7.000 1.000
78.620 7.000 1.000
78.640 5.000 1.000
78.660 2.000 1.000
78.680 3.000 1.000
78.700 6.000 1.000
78.720 8.000 1.000
78.740 5.000 1.000
78.760 10.000 1.000
78.780 7.000 1.000
78.800 3.000 1.000
78.820 8.000 1.000
78.840 4.000 1.000
78.860 7.000 1.000
78.880 5.000 1.000
78.900 2.000 1.000
78.920 6.000 1.000
78.940 8.000 1.000
78.960 4.000 1.000
78.980 6.000 1.000
79.000 5.000 1.000
79.020 8.000 1.000
79.040 6.000 1.000
79.060 5.000 1.000
79.080 7.000 1.000
79.100 9.000 1.000
79.120 5.000 1.000
79.140 5.000 1.000
79.160 4.000 1.000
79.180 7.000 1.000
79.200 7.000 1.000
79.220 5.000 1.000
79.240 7.000 1.000
79.260 4.000 1.000
79.280 2.000 1.000
79.300 6.000 1.000
79.320 4.000 1.000
79.340 3.000 1.000
79.360 4.000 1.000
79.380 2.000 1.000
79.400 4.000 1.000
79.420 3.000 1.000
79.440 6.000 1.000
79.460 3.000 1.000
79.480 3.000 1.000
79.500 6.000 1.000
79.520 6.000 1.000
79.540 2.000 1.000
79.560 7.000 1.000
79.580 8.000 1.000
79.600 7.000 1.000
79.620 3.000 1.000
79.640 4.000 1.000
79.660 7.000 1.000
79.680 9.000 1.000
79.700 5.000 1.000
79.720 13.000 1.000
79.740 5.000 1.000
79.760 6.000 1.000
79.780 8.000 1.000
79.800 2.000 1.000
79.820 8.000 1.000
79.840 7.000 1.000
79.860 5.000 1.000
79.880 5.000 1.000
79.900 10.000 1.000
79.920 6.000 1.000
79.940 4.000 1.000
79.960 6.000 1.000
79.980 6.000 1.000
80.000 6.000 1.000
80.020 4.000 1.000
80.040 7.000 1.000
80.060 5.000 1.000
80.080 10.000 1.000
80.100 5.000 1.000
80.120 5.000 1.000
80.140 4.000 1.000
80.160 6.000 1.000
80.180 6.000 1.000
80.200 2.000 1.000
80.220 10.000 1.000
80.240 7.000 1.000
80.260 5.000 1.000
80.280 5.000 1.000
80.300 3.000 1.000
80.320 5.000 1.000
80.340 5.000 1.000
80.360 2.000 1.000
80.380 4.000 1.000
80.400 4.000 1.000
80.420 4.000 1.000
80.440 2.000 1.000
80.460 4.000 1.000
80.480 7.000 1.000
80.500 4.000 1.000
80.520 3.000 1.000
80.540 4.000 1.000
80.560 4.000 1.000
80.580 5.000 1.000
80.600 6.000 1.000
80.620 6.000 1.000
80.640 6.000 1.000
80.660 3.000 1.000
80.680 3.000 1.000
80.700 3.000 1.000
80.720 8.000 1.000
80.740 1.000 1.000
80.760 4.000 1.000
80.780 7.000 1.000
80.800 2.000 1.000
80.820 0.000 1.000
80.840 4.000 1.000
80.860 6.000 1.000
80.880 6.000 1.000
80.900 7.000 1.000
80.920 6.000 1.000
80.940 7.000 1.000
80.960 2.000 1.000
80.980 3.000 1.000
81.000 5.000 1.000
81.020 3.000 1.000
81.040 6.000 1.000
81.060 5.000 1.000
81.080 5.000 1.000
81.100 6.000 1.000
81.120 8.000 1.000
81.140 6.000 1.000
81.160 8.000 1.000
81.180 6.000 1.000
81.200 5.000 1.000
81.220 5.000 1.000
81.240 3.000 1.000
81.260 11.000 1.000
81.280 9.000 1.000
81.300 9.000 1.000
81.320 8.000 1.000
81.340 7.000 1.000
81.360 6.000 1.000
81.380 3.000 1.000
81.400 7.000 1.000
81.420 4.000 1.000
81.440 4.000 1.000
81.460 7.000 1.000
81.480 5.000 1.000
81.500 6.000 1.000
81.520 2.000 1.000
81.540 3.000 1.000
81.560 6.000 1.000
81.580 8.000 1.000
81.600 11.000 1.000
81.620 5.000 1.000
81.640 3.000 1.000
81.660 5.000 1.000
81.680 5.000 1.000
81.700 4.000 1.000
81.720 7.000 1.000
81.740 4.000 1.000
81.760 8.000 1.000
81.780 10.000 1.000
81.800 4.000 1.000
81.820 2.000 1.000
81.840 5.000 1.000
81.860 7.000 1.000
81.880 1.000 1.000
81.900 3.000 1.000
81.920 4.000 1.000
81.940 10.000 1.000
81.960 7.000 1.000
81.980 9.000 1.000
82.000 7.000 1.000
82.020 7.000 1.000
82.040 4.000 1.000
82.060 4.000 1.000
82.080 7.000 1.000
82.100 8.000 1.000
82.120 5.000 1.000
82.140 5.000 1.000
82.160 3.000 1.000
82.180 2.000 1.000
82.200 4.000 1.000
82.220 9.000 1.000
82.240 3.000 1.000
82.260 5.000 1.000
82.280 5.000 1.000
82.300 5.000 1.000
82.320 4.000 1.000
82.340 7.000 1.000
82.360 7.000 1.000
82.380 4.000 1.000
82.400 9.000 1.000
82.420 7.000 1.000
82.440 3.000 1.000
82.460 6.000 1.000
82.480 3.000 1.000
82.500 5.000 1.000
82.520 9.000 1.000
82.540 2.000 1.000
82.560 4.000 1.000
82.580 5.000 1.000
82.600 3.000 1.000
82.620 3.000 1.000
82.640 7.000 1.000
82.660 2.000 1.000
82.680 7.000 1.000
82.700 4.000 1.000
82.720 3.000 1.000
82.740 8.000 1.000
82.760 3.000 1.000
82.780 6.000 1.000
82.800 2.000 1.000
82.820 6.000 1.000
82.840 6.000 1.000
82.860 7.000 1.000
82.880 2.000 1.000
82.900 2.000 1.000
82.920 7.000 1.000
82.940 5.000 1.000
82.960 5.000 1.000
82.980 14.000 1.000
83.000 6.000 1.000
83.020 6.000 1.000
83.040 7.000 1.000
83.060 5.000 1.000
83.080 4.000 1.000
83.100 6.000 1.000
83.120 9.000 1.000
83.140 5.000 1.000
83.160 7.000 1.000
83.180 4.000 1.000
83.200 5.000 1.000
83.220 6.000 1.000
83.240 6.000 1.000
83.260 5.000 1.000
83.280 3.000 1.000
83.300 4.000 1.000
83.320 3.000 1.000
83.340 4.000 1.000
83.360 5.000 1.000
83.380 4.000 1.000
83.400 4.000 1.000
83.420 5.000 1.000
83.440 9.000 1.000
83.460 4.000 1.000
83.480 4.000 1.000
83.500 7.000 1.000
83.520 7.000 1.000
83.540 4.000 1.000
83.560 5.000 1.000
83.580 4.000 1.000
83.600 8.000 1.000
83.620 4.000 1.000
83.640 3.000 1.000
83.660 6.000 1.000
83.680 6.000 1.000
83.700 5.000 1.000
83.720 8.000 1.000
83.740 6.000 1.000
83.760 3.000 1.000
83.780 4.000 1.000
83.800 6.000 1.000
83.820 9.000 1.000
83.840 5.000 1.000
83.860 7.000 1.000
83.880 7.000 1.000
83.900 6.000 1.000
83.920 4.000 1.000
83.940 2.000 1.000
83.960 8.000 1.000
83.980 5.000 1.000
84.000 11.000 1.000
84.020 5.000 1.000
84.040 4.000 1.000
84.060 5.000 1.000
84.080 4.000 1.000
84.100 5.000 1.000
84.120 9.000 1.000
84.140 8.000 1.000
84.160 10.000 1.000
84.180 4.000 1.000
84.200 4.000 1.000
84.220 8.000 1.000
84.240 4.000 1.000
84.260 11.000 1.000
84.280 3.000 1.000
84.300 9.000 1.000
84.320 5.000 1.000
84.340 7.000 1.000
84.360 6.000 1.000
84.380 5.000 1.000
84.400 4.000 1.000
84.420 4.000 1.000
84.440 6.000 1.000
84.460 4.000 1.000
84.480 4.000 1.000
84.500 8.000 1.000
84.520 3.000 1.000
84.540 3.000 1.000
84.560 6.000 1.000
84.580 10.000 1.000
84.600 5.000 1.000
84.620 5.000 1.000
84.640 3.000 1.000
84.660 8.000 1.000
84.680 10.000 1.000
84.700 3.000 1.000
84.720 3.000 1.000
84.740 5.000 1.000
84.760 4.000 1.000
84.780 5.000 1.000
84.800 4.000 1.000
84.820 8.000 1.000
84.840 11.000 1.000
84.860 6.000 1.000
84.880 4.000 1.000
84.900 3.000 1.000
84.920 1.000 1.000
84.940 3.000 1.000
84.960 3.000 1.000
84.980 8.000 1.000
85.000 10.000 1.000
85.020 8.000 1.000
85.040 6.000 1.000
85.060 5.000 1.000
85.080 7.000 1.000
85.100 5.000 1.000
85.120 6.000 1.000
85.140 4.000 1.000
85.160 5.000 1.000
85.180 7.000 1.000
85.200 6.000 1.000
85.220 4.000 1.000
85.240 6.000 1.000
85.260 8.000 1.000
85.280 9.000 1.000
85.300 10.000 1.000
85.320 6.000 1.000
85.340 11.000 1.000
85.360 4.000 1.000
85.380 7.000 1.000
85.400 9.000 1.000
85.420 4.000 1.000
85.440 3.000 1.000
85.460 5.000 1.000
85.480 5.000 1.000
85.500 10.000 1.000
85.520 14.000 1.000
85.540 7.000 1.000
85.560 9.000 1.000
85.580 6.000 1.000
85.600 2.000 1.000
85.620 3.000 1.000
85.640 6.000 1.000
85.660 5.000 1.000
85.680 4.000 1.000
85.700 3.000 1.000
85.720 5.000 1.000
85.740 3.000 1.000
85.760 4.000 1.000
85.780 4.000 1.000
85.800 5.000 1.000
85.820 7.000 1.000
85.840 5.000 1.000
85.860 7.000 1.000
85.880 7.000 1.000
85.900 9.000 1.000
85.920 8.000 1.000
85.940 7.000 1.000
85.960 9.000 1.000
85.980 6.000 1.000
86.000 7.000 1.000
86.020 7.000 1.000
86.040 9.000 1.000
86.060 9.000 1.000
86.080 7.000 1.000
86.100 8.000 1.000
86.120 9.000 1.000
86.140 6.000 1.000
86.160 7.000 1.000
86.180 5.000 1.000
86.200 8.000 1.000
86.220 5.000 1.000
86.240 7.000 1.000
86.260 4.000 1.000
86.280 4.000 1.000
86.300 6.000 1.000
86.320 10.000 1.000
86.340 5.000 1.000
86.360 2.000 1.000
86.380 7.000 1.000
86.400 3.000 1.000
86.420 6.000 1.000
86.440 11.000 1.000
86.460 8.000 1.000
86.480 9.000 1.000
86.500 5.000 1.000
86.520 5.000 1.000
86.540 10.000 1.000
86.560 5.000 1.000
86.580 8.000 1.000
86.600 7.000 1.000
86.620 8.000 1.000
86.640 6.000 1.000
86.660 7.000 1.000
86.680 6.000 1.000
86.700 8.000 1.000
86.720 7.000 1.000
86.740 4.000 1.000
86.760 5.000 1.000
86.780 7.000 1.000
86.800 8.000 1.000
86.820 8.000 1.000
86.840 8.000 1.000
86.860 9.000 1.000
86.880 6.000 1.000
86.900 6.000 1.000
86.920 8.000 1.000
86.940 4.000 1.000
86.960 2.000 1.000
86.980 7.000 1.000
87.000 6.000 1.000
87.020 8.000 1.000
87.040 10.000 1.000
87.060 11.000 1.000
87.080 8.000 1.000
87.100 3.000 1.000
87.120 6.000 1.000
87.140 8.000 1.000
87.160 8.000 1.000
87.180 6.000 1.000
87.200 10.000 1.000
87.220 5.000 1.000
87.240 3.000 1.000
87.260 8.000 1.000
87.280 7.000 1.000
87.300 7.000 1.000
87.320 6.000 1.000
87.340 4.000 1.000
87.360 2.000 1.000
87.380 2.000 1.000
87.400 3.000 1.000
87.420 5.000 1.000
87.440 6.000 1.000
87.460 5.000 1.000
87.480 4.000 1.000
87.500 2.000 1.000
87.520 4.000 1.000
87.540 7.000 1.000
87.560 6.000 1.000
87.580 2.000 1.000
87.600 6.000 1.000
87.620 7.000 1.000
87.640 7.000 1.000
87.660 9.000 1.000
87.680 5.000 1.000
87.700 5.000 1.000
87.720 2.000 1.000
87.740 3.000 1.000
87.760 4.000 1.000
87.780 2.000 1.000
87.800 9.000 1.000
87.820 4.000 1.000
87.840 9.000 1.000
87.860 6.000 1.000
87.880 4.000 1.000
87.900 3.000 1.000
87.920 5.000 1.000
87.940 4.000 1.000
87.960 4.000 1.000
87.980 7.000 1.000
88.000 5.000 1.000
88.020 1.000 1.000
88.040 8.000 1.000
88.060 8.000 1.000
88.080 9.000 1.000
88.100 7.000 1.000
88.120 8.000 1.000
88.140 9.000 1.000
88.160 4.000 1.000
88.180 7.000 1.000
88.200 5.000 1.000
88.220 3.000 1.000
88.240 3.000 1.000
88.260 4.000 1.000
88.280 7.000 1.000
88.300 5.000 1.000
88.320 6.000 1.000
88.340 8.000 1.000
88.360 2.000 1.000
88.380 1.000 1.000
88.400 4.000 1.000
88.420 1.000 1.000
88.440 2.000 1.000
88.460 8.000 1.000
88.480 3.000 1.000
88.500 4.000 1.000
88.520 6.000 1.000
88.540 1.000 1.000
88.560 3.000 1.000
88.580 1.000 1.000
88.600 3.000 1.000
88.620 3.000 1.000
88.640 5.000 1.000
88.660 2.000 1.000
88.680 3.000 1.000
88.700 3.000 1.000
88.720 4.000 1.000
88.740 7.000 1.000
88.760 4.000 1.000
88.780 4.000 1.000
88.800 3.000 1.000
88.820 6.000 1.000
88.840 4.000 1.000
88.860 6.000 1.000
88.880 7.000 1.000
88.900 3.000 1.000
88.920 6.000 1.000
88.940 6.000 1.000
88.960 5.000 1.000
88.980 5.000 1.000
89.000 4.000 1.000
89.020 6.000 1.000
89.040 3.000 1.000
89.060 4.000 1.000
89.080 5.000 1.000
89.100 7.000 1.000
89.120 6.000 1.000
89.140 10.000 1.000
89.160 2.000 1.000
89.180 3.000 1.000
89.200 5.000 1.000
89.220 5.000 1.000
89.240 8.000 1.000
89.260 2.000 1.000
89.280 4.000 1.000
89.300 3.000 1.000
89.320 6.000 1.000
89.340 1.000 1.000
89.360 4.000 1.000
89.380 6.000 1.000
89.400 5.000 1.000
89.420 5.000 1.000
89.440 5.000 1.000
89.460 6.000 1.000
89.480 7.000 1.000
89.500 4.000 1.000
89.520 5.000 1.000
89.540 4.000 1.000
89.560 3.000 1.000
89.580 4.000 1.000
89.600 5.000 1.000
89.620 5.000 1.000
89.640 7.000 1.000
89.660 6.000 1.000
89.680 5.000 1.000
89.700 4.000 1.000
89.720 6.000 1.000
89.740 6.000 1.000
89.760 2.000 1.000
89.780 5.000 1.000
89.800 6.000 1.000
89.820 5.000 1.000
89.840 5.000 1.000
89.860 6.000 1.000
89.880 3.000 1.000
89.900 7.000 1.000
89.920 6.000 1.000
89.940 6.000 1.000
89.960 3.000 1.000
89.980 2.000 1.000
90.000 2.000 1.000
*RAS_INT_END
*RAS_DATA_END
